File: EXPERIMENTAL/Data/Battery-cycling/E-measurements/C-cell/2024-04-25_E-measurements_sample-LiFSI-electrolyte-01_C-cell_Cu-Li-Cellgard2400-separator_25muL-LiFSI-in-DME_outside-glovebox_sigma-0.02_added-OCV-0.1s_04_CP_C02.txt
time/s	Ewe/V	I/mA	error
1332.43	0.00552147	-0.194577	0
1332.43	-0.000696439	-0.195967	0
1332.43	-0.00331154	-0.195963	0
1332.43	-0.00543034	-0.195971	0
1332.43	-0.00774002	-0.195962	0
1332.43	-0.00999244	-0.195973	0
1332.43	-0.0124357	-0.195963	0
1332.43	-0.0145736	-0.195969	0
1332.44	-0.0167497	-0.195966	0
1332.44	-0.0189449	-0.195969	0
1332.44	-0.0211209	-0.195966	0
1332.44	-0.0235833	-0.195963	0
1332.44	-0.0258357	-0.195963	0
1332.45	-0.0279927	-0.19597	0
1332.45	-0.0304551	-0.195964	0
1332.45	-0.0326121	-0.195965	0
1332.45	-0.0346736	-0.195961	0
1332.45	-0.036926	-0.195966	0
1332.46	-0.039083	-0.195967	0
1332.46	-0.0414882	-0.195966	0
1332.46	-0.0437024	-0.195965	0
1332.46	-0.0458594	-0.195963	0
1332.47	-0.0479591	-0.195968	0
1332.47	-0.0502306	-0.19597	0
1332.47	-0.0524258	-0.195963	0
1332.47	-0.0546782	-0.195963	0
1332.48	-0.0568542	-0.195965	0
1332.48	-0.0589349	-0.195966	0
1332.48	-0.0611873	-0.195959	0
1332.48	-0.0633443	-0.195967	0
1332.49	-0.0655776	-0.195963	0
1332.49	-0.0678109	-0.195962	0
1332.49	-0.0700443	-0.195972	0
1332.49	-0.0722394	-0.195958	0
1332.5	-0.0743964	-0.195964	0
1332.5	-0.0767633	-0.195968	0
1332.5	-0.0789394	-0.195966	0
1332.51	-0.0810391	-0.19597	0
1332.51	-0.0833488	-0.195966	0
1332.51	-0.0854485	-0.195964	0
1332.51	-0.0876628	-0.195962	0
1332.52	-0.0898579	-0.195964	0
1332.52	-0.0919958	-0.195968	0
1332.52	-0.0941146	-0.195967	0
1332.53	-0.0961571	-0.19597	0
1332.53	-0.0983522	-0.195963	0
1332.53	-0.100452	-0.195965	0
1332.54	-0.102762	-0.195962	0
1332.54	-0.104976	-0.19597	0
1332.54	-0.107171	-0.195966	0
1332.55	-0.109271	-0.195966	0
1332.55	-0.111351	-0.195971	0
1332.56	-0.113623	-0.195971	0
1332.56	-0.115723	-0.195963	0
1332.56	-0.117841	-0.195968	0
1332.57	-0.120075	-0.195968	0
1332.57	-0.122194	-0.195968	0
1332.58	-0.124446	-0.195969	0
1332.58	-0.126584	-0.195973	0
1332.59	-0.128741	-0.195961	0
1332.59	-0.130821	-0.19596	0
1332.59	-0.132921	-0.195966	0
1332.6	-0.135193	-0.195971	0
1332.6	-0.137292	-0.195957	0
1332.61	-0.139449	-0.195971	0
1332.62	-0.141683	-0.195962	0
1332.62	-0.143763	-0.195967	0
1332.63	-0.145863	-0.195969	0
1332.63	-0.148039	-0.195964	0
1332.64	-0.150101	-0.195966	0
1332.64	-0.152277	-0.195967	0
1332.65	-0.154357	-0.195966	0
1332.66	-0.156514	-0.195971	0
1332.66	-0.158786	-0.195968	0
1332.67	-0.161	-0.195964	0
1332.68	-0.1631	-0.195967	0
1332.69	-0.165295	-0.195964	0
1332.7	-0.167318	-0.195968	0
1332.7	-0.16938	-0.195964	0
1332.71	-0.17146	-0.195968	0
1332.72	-0.173503	-0.195969	0
1332.73	-0.175526	-0.195967	0
1332.74	-0.177645	-0.195961	0
1332.76	-0.179668	-0.19596	0
1332.77	-0.181768	-0.195964	0
1332.79	-0.183849	-0.195966	0
1332.81	-0.185987	-0.195966	0
1332.87	-0.185987	-0.195969	0
1332.89	-0.183868	-0.195966	0
1332.91	-0.181749	-0.195968	0
1332.92	-0.179649	-0.195966	0
1332.93	-0.177588	-0.195969	0
1332.95	-0.175526	-0.19597	0
1332.95	-0.173465	-0.195966	0
1332.97	-0.171403	-0.195962	0
1332.98	-0.16917	-0.195971	0
1332.99	-0.16707	-0.195959	0
1333	-0.16499	-0.195971	0
1333.01	-0.162833	-0.195967	0
1333.02	-0.160695	-0.195967	0
1333.03	-0.158671	-0.19597	0
1333.04	-0.156591	-0.195967	0
1333.05	-0.154357	-0.195968	0
1333.07	-0.152277	-0.195964	0
1333.08	-0.150082	-0.195964	0
1333.09	-0.147963	-0.195966	0
1333.11	-0.145806	-0.19597	0
1333.13	-0.143725	-0.195971	0
1333.15	-0.141625	-0.19597	0
1333.16	-0.139602	-0.195969	0
1333.19	-0.137521	-0.19597	0
1333.21	-0.135422	-0.195966	0
1333.24	-0.13336	-0.195966	0
1333.28	-0.131299	-0.195966	0
1333.32	-0.12918	-0.195968	0
1333.37	-0.127156	-0.195969	0
1333.44	-0.125057	-0.195966	0
1333.55	-0.1229	-0.195969	0
1333.7	-0.120857	-0.195968	0
1333.98	-0.118796	-0.195971	0
1334.84	-0.116715	-0.195964	0
1354.84	-0.117441	-0.195968	0
1374.84	-0.11786	-0.19597	0
1394.84	-0.117746	-0.19597	0
1414.84	-0.11683	-0.195969	0
1434.84	-0.115875	-0.195968	0
1454.84	-0.11473	-0.195969	0
1473.69	-0.113298	-0.195964	0
1493.69	-0.111829	-0.19597	0
1513.69	-0.110569	-0.195967	0
1533.15	-0.108984	-0.195969	0
1553.15	-0.107935	-0.195971	0
1573.15	-0.106732	-0.195968	0
1593.15	-0.105434	-0.19597	0
1613.15	-0.104136	-0.19597	0
1633.15	-0.103162	-0.195971	0
1653.15	-0.102017	-0.195975	0
1673.15	-0.101044	-0.195972	0
1693.15	-0.100127	-0.195971	0
1713.15	-0.0993066	-0.195971	0
1733.15	-0.0983904	-0.195965	0
1753.15	-0.0977605	-0.195969	0
1773.15	-0.0969206	-0.195971	0
1793.15	-0.0963098	-0.195968	0
1813.15	-0.0956226	-0.195972	0
1833.15	-0.0950499	-0.195963	0
1853.15	-0.0945155	-0.195975	0
1873.15	-0.0937329	-0.195966	0
1893.15	-0.0934274	-0.195966	0
1913.15	-0.0927593	-0.195969	0
1933.15	-0.0923967	-0.195969	0
1953.15	-0.0919195	-0.195973	0
1973.15	-0.0913468	-0.195974	0
1993.15	-0.0909078	-0.195969	0
2013.15	-0.0904688	-0.195967	0
2033.15	-0.0900679	-0.195971	0
2053.15	-0.0896289	-0.195963	0
2073.15	-0.089228	-0.195964	0
2093.15	-0.0887317	-0.195968	0
2113.15	-0.0884836	-0.195969	0
2133.15	-0.0881972	-0.195969	0
2153.15	-0.0878918	-0.195971	0
2173.15	-0.087491	-0.195968	0
2193.15	-0.0873001	-0.195969	0
2213.15	-0.0869374	-0.195967	0
2233.15	-0.0865175	-0.195968	0
2253.15	-0.086193	-0.195976	0
2273.15	-0.085983	-0.195967	0
2293.15	-0.0856776	-0.19597	0
2313.15	-0.0853722	-0.195972	0
2333.15	-0.0850859	-0.19598	0
2353.15	-0.0849713	-0.19597	0
2373.15	-0.0847232	-0.195974	0
2393.15	-0.0844368	-0.19597	0
2413.15	-0.0841887	-0.19597	0
2433.15	-0.0840169	-0.195965	0
2453.15	-0.083616	-0.195971	0
2473.15	-0.0832915	-0.195967	0
2493.15	-0.0832725	-0.19597	0
2513.15	-0.0830243	-0.195969	0
2533.15	-0.0828143	-0.195966	0
2553.15	-0.0826044	-0.195972	0
2573.15	-0.0824517	-0.195969	0
2593.15	-0.0822799	-0.195974	0
2613.15	-0.0819745	-0.195972	0
2633.15	-0.0818217	-0.195968	0
2653.15	-0.0817645	-0.195975	0
2673.15	-0.0814591	-0.195974	0
2693.15	-0.0813255	-0.195976	0
2713.15	-0.0810582	-0.195967	0
2733.15	-0.0808864	-0.195967	0
2753.15	-0.0806955	-0.195973	0
2773.15	-0.0806765	-0.195971	0
2793.15	-0.0805237	-0.195975	0
2813.15	-0.0801802	-0.195971	0
2833.15	-0.0801229	-0.195968	0
2853.15	-0.0798747	-0.195967	0
2873.15	-0.0798366	-0.195969	0
2893.15	-0.0797029	-0.195969	0
2913.15	-0.0795693	-0.195966	0
2933.15	-0.0793212	-0.195971	0
2953.15	-0.0793021	-0.19597	0
2973.15	-0.0791876	-0.195971	0
2993.15	-0.0788249	-0.195972	0
3013.15	-0.078844	-0.19597	0
3033.15	-0.0787676	-0.195966	0
3053.15	-0.0784622	-0.195976	0
3073.15	-0.0784431	-0.195973	0
3093.15	-0.0783477	-0.195976	0
3113.15	-0.0781377	-0.195969	0
3132.43	-0.0780804	-0.195971	0