File: EXPERIMENTAL/Data/Battery-cycling/E-measurements/C-cell/2024-04-29_E-measurements_sample-Ionic-04_C-cell_Cu-Li_glassfiber-separator_25muL-ionic-electrolyte_outside-glovebox_sigma-0.02_added-OCV-0.1s_02_MB_C02.txt
time/s	Ewe/V	I/mA	error
60.053	2.73642	-0.0250311	0
60.1738	0.00946585	-8.50061	0
60.1754	0.00956129	-8.37206	0
60.1768	0.00933223	-8.2556	0
60.1784	0.00946585	-8.13469	0
60.1798	0.00948494	-8.02078	0
60.1814	0.0093895	-7.90432	0
60.183	0.00942767	-7.77768	0
60.1846	0.00942767	-7.66632	0
60.1864	0.00940858	-7.53777	0
60.188	0.00935132	-7.42576	0
60.1896	0.00944676	-7.30931	0
60.1914	0.00937041	-7.18967	0
60.1932	0.00937041	-7.07894	0
60.1948	0.00940858	-6.96948	0
60.1968	0.00927497	-6.84411	0
60.1986	0.00942767	-6.72702	0
60.2006	0.00952311	-6.6131	0
60.2024	0.00940858	-6.50301	0
60.2042	0.00931314	-6.39482	0
60.2066	0.00931314	-6.26946	0
60.2086	0.00935132	-6.15936	0
60.2106	0.00933223	-6.05309	0
60.2128	0.00935132	-5.93281	0
60.2152	0.00935132	-5.82017	0
60.2178	0.0093895	-5.69544	0
60.2204	0.00931314	-5.57835	0
60.2228	0.00937041	-5.47016	0
60.2254	0.00935132	-5.35434	0
60.2282	0.00944676	-5.24552	0
60.2306	0.00946585	-5.14434	0
60.2334	0.00950403	-5.0336	0
60.2364	0.0093895	-4.92351	0
60.2394	0.0093895	-4.80578	0
60.2428	0.00931314	-4.69696	0
60.246	0.00935132	-4.58686	0
60.2492	0.00942767	-4.48504	0
60.2528	0.00944676	-4.37431	0
60.2566	0.00937041	-4.26422	0
60.2602	0.0093895	-4.16303	0
60.2642	0.0093895	-4.05549	0
60.2686	0.0093895	-3.93776	0
60.273	0.00940858	-3.95917	0
60.3062	0.00940858	-3.17816	0
60.3126	0.00933223	-3.0754	0
60.3194	0.00937041	-2.97239	0
60.3268	0.00935132	-2.86996	0
60.335	0.00935132	-2.76631	0
60.3438	0.00940858	-2.66458	0
60.3534	0.00933223	-2.56265	0
60.364	0.0093895	-2.46098	0
60.3758	0.00931314	-2.35905	0
60.3888	0.00935132	-2.25802	0
60.4032	0.00937041	-2.15685	0
60.4194	0.00944676	-2.05569	0
60.4372	0.00923679	-1.95491	0
60.4572	0.00946585	-1.85356	0
60.4794	0.00948494	-1.75258	0
60.5044	0.0093895	-1.65148	0
60.5324	0.00935132	-1.55077	0
60.5642	0.00940858	-1.45011	0
60.6006	0.00927497	-1.34971	0
60.643	0.00935132	-1.24906	0
60.6934	0.00942767	-1.14809	0
60.7538	0.00931314	-1.04705	0
60.8284	0.00935132	-0.946716	0
60.923	0.00946585	-0.845998	0
61.0494	0.00935132	-0.745599	0
61.2284	0.00944676	-0.645008	0
61.496	0.0093895	-0.544927	0
61.9372	0.00942767	-0.444336	0
62.7998	0.00933223	-0.343992	0
64.7802	0.00933223	-0.243911	0
65.0534	0.00919861	-0.23547	0
72.4938	0.00940858	-0.135319	0
92.4938	0.00944676	-0.0712236	0
112.494	0.00929405	-0.048982	0
132.494	0.00937041	-0.0385885	0
152.494	0.0093895	-0.0321844	0
172.494	0.00927497	-0.027872	0
192.494	0.0093895	-0.0248481	0
212.494	0.00931314	-0.0225153	0
232.494	0.0093895	-0.020647	0
252.494	0.00935132	-0.0191071	0
272.494	0.00933223	-0.0178204	0
292.494	0.00925588	-0.0168436	0
312.494	0.00935132	-0.0159782	0
332.494	0.00931314	-0.0150708	0
352.494	0.00935132	-0.0143823	0
372.494	0.00937041	-0.0137326	0
392.494	0.00946585	-0.0131185	0
412.494	0.00931314	-0.0126642	0
432.494	0.0092177	-0.012157	0
452.494	0.00944676	-0.0117396	0
472.494	0.00944676	-0.0113559	0
492.494	0.00942767	-0.0109454	0
512.494	0.00929405	-0.010717	0
532.494	0.00933223	-0.0102957	0
552.494	0.00937041	-0.0100387	0
572.494	0.00933223	-0.00975421	0
592.494	0.00933223	-0.00956013	0
612.494	0.00927497	-0.0092636	0
632.494	0.00940858	-0.00904406	0
652.494	0.00933223	-0.00883344	0
672.494	0.00931314	-0.00875453	0
692.494	0.00931314	-0.00852227	0
712.494	0.00942767	-0.0082601	0
732.494	0.00940858	-0.00811501	0
752.494	0.00927497	-0.0079852	0
772.494	0.00937041	-0.00776885	0
792.494	0.00931314	-0.00763585	0
812.494	0.00944676	-0.00749968	0
832.494	0.00927497	-0.00733996	0
852.494	0.00929405	-0.00723496	0
872.494	0.0093895	-0.00705424	0
892.494	0.00937041	-0.00711342	0
912.494	0.00940858	-0.00686652	0
932.494	0.0093895	-0.00677425	0
952.494	0.00935132	-0.00670426	0
972.494	0.00935132	-0.00654454	0
992.494	0.0093895	-0.00644972	0
1012.49	0.00935132	-0.00633136	0
1032.49	0.00925588	-0.0062321	0
1052.49	0.00927497	-0.00613601	0
1072.49	0.00937041	-0.00602274	0
1092.49	0.00929405	-0.0059922	0
1112.49	0.00929405	-0.00590438	0
1132.49	0.00937041	-0.00576312	0
1152.49	0.00929405	-0.00576693	0
1172.49	0.00937041	-0.00570076	0
1192.49	0.00940858	-0.00563458	0
1212.49	0.00940858	-0.00557285	0
1232.49	0.00940858	-0.00541504	0
1252.49	0.00933223	-0.00538832	0
1272.49	0.00940858	-0.00530814	0
1292.49	0.00935132	-0.00532914	0
1312.49	0.00940858	-0.00522732	0
1332.49	0.00937041	-0.0052006	0
1352.49	0.0093895	-0.00504469	0
1372.49	0.00931314	-0.00501542	0
1392.49	0.00935132	-0.00495688	0
1412.49	0.00942767	-0.0049047	0
1432.49	0.0093895	-0.00485634	0
1452.49	0.00937041	-0.00486779	0
1472.49	0.0093895	-0.00482389	0
1492.49	0.00944676	-0.00476852	0
1512.49	0.00933223	-0.00470425	0
1532.49	0.00929405	-0.00464953	0
1552.49	0.00925588	-0.00467562	0
1572.49	0.00937041	-0.00452099	0
1592.49	0.00933223	-0.00448917	0
1612.49	0.00923679	-0.00450884	0
1632.49	0.00935132	-0.00447101	0
1652.49	0.00935132	-0.00444249	0
1672.49	0.00946585	-0.00441249	0
1692.49	0.00937041	-0.00436824	0
1712.49	0.00929405	-0.0043273	0
1732.49	0.00940858	-0.00426935	0
1752.49	0.00927497	-0.00426209	0
1772.49	0.00929405	-0.00426165	0
1792.49	0.00946585	-0.00420911	0
1812.49	0.00927497	-0.00415148	0
1832.49	0.00929405	-0.00413276	0
1852.49	0.00929405	-0.00409297	0
1872.49	0.00937041	-0.00407138	0
1892.49	0.00925588	-0.00402655	0
1912.49	0.00935132	-0.00400809	0
1932.49	0.00929405	-0.00395625	0
1932.67	0.0093895	-0.00392314	0