File: EXPERIMENTAL/Data/Battery-cycling/E-measurements/C-cell/2024-04-29_E-measurements_sample-Ionic-03_C-cell_Cu-Li_glassfiber-separator_25muL-ionic-electrolyte_outside-glovebox_sigma-0.02_added-OCV-0.1s_04_CP_C01.txt
time/s	Ewe/V	I/mA	error
1309.49	-0.000952002	-0.194685	0
1309.49	-0.00673243	-0.195968	0
1309.5	-0.00995881	-0.195963	0
1309.5	-0.0126125	-0.195965	0
1309.5	-0.0148843	-0.195965	0
1309.5	-0.0174998	-0.195968	0
1309.5	-0.0198098	-0.195968	0
1309.5	-0.0220625	-0.195964	0
1309.5	-0.0245635	-0.19596	0
1309.5	-0.0270262	-0.195968	0
1309.5	-0.0293935	-0.195968	0
1309.5	-0.0316653	-0.195967	0
1309.51	-0.0340899	-0.195971	0
1309.51	-0.0364953	-0.195967	0
1309.51	-0.0391872	-0.195967	0
1309.51	-0.0417454	-0.195962	0
1309.51	-0.0443227	-0.195965	0
1309.51	-0.0466518	-0.195962	0
1309.52	-0.0489236	-0.195965	0
1309.52	-0.0510618	-0.195961	0
1309.52	-0.0532191	-0.19596	0
1309.52	-0.0553191	-0.195965	0
1309.52	-0.0576291	-0.195962	0
1309.52	-0.0598819	-0.195968	0
1309.53	-0.0622491	-0.195963	0
1309.53	-0.0644446	-0.195967	0
1309.53	-0.0669264	-0.195962	0
1309.53	-0.069141	-0.195972	0
1309.53	-0.0715656	-0.195967	0
1309.53	-0.0738565	-0.195966	0
1309.54	-0.0759947	-0.195972	0
1309.54	-0.0782856	-0.195966	0
1309.54	-0.0805574	-0.195961	0
1309.54	-0.0826956	-0.195964	0
1309.55	-0.0849675	-0.195965	0
1309.55	-0.0872584	-0.195968	0
1309.55	-0.0894539	-0.195967	0
1309.55	-0.0914775	-0.195961	0
1309.55	-0.093673	-0.195968	0
1309.56	-0.0959066	-0.195968	0
1309.56	-0.0981976	-0.195962	0
1309.56	-0.100469	-0.195964	0
1309.56	-0.102684	-0.195963	0
1309.57	-0.104822	-0.195967	0
1309.57	-0.106884	-0.19597	0
1309.57	-0.108965	-0.195968	0
1309.57	-0.111122	-0.195966	0
1309.58	-0.113222	-0.195971	0
1309.58	-0.115532	-0.195964	0
1309.58	-0.117747	-0.195963	0
1309.59	-0.11979	-0.195961	0
1309.59	-0.121985	-0.195966	0
1309.59	-0.12418	-0.195967	0
1309.6	-0.126242	-0.195959	0
1309.6	-0.128438	-0.195969	0
1309.6	-0.130519	-0.195966	0
1309.61	-0.132657	-0.195969	0
1309.61	-0.135043	-0.195964	0
1309.61	-0.137258	-0.195966	0
1309.62	-0.13932	-0.195963	0
1309.62	-0.141553	-0.195964	0
1309.63	-0.143901	-0.195968	0
1309.63	-0.146211	-0.195964	0
1309.64	-0.148273	-0.195964	0
1309.64	-0.150469	-0.195963	0
1309.65	-0.152531	-0.195962	0
1309.65	-0.154592	-0.195962	0
1309.66	-0.156807	-0.195965	0
1309.66	-0.159002	-0.195964	0
1309.67	-0.161236	-0.195968	0
1309.68	-0.163508	-0.195969	0
1309.69	-0.165589	-0.195968	0
1309.7	-0.167784	-0.195966	0
1309.7	-0.169808	-0.19597	0
1309.71	-0.171946	-0.195968	0
1309.72	-0.17397	-0.195965	0
1309.74	-0.17607	-0.19597	0
1309.75	-0.178132	-0.195964	0
1309.77	-0.180213	-0.195966	0
1309.87	-0.180232	-0.195969	0
1309.89	-0.178113	-0.19597	0
1309.9	-0.17607	-0.195968	0
1309.92	-0.173951	-0.195965	0
1309.93	-0.17187	-0.19597	0
1309.94	-0.169693	-0.195962	0
1309.95	-0.167517	-0.195966	0
1309.96	-0.165398	-0.195967	0
1309.97	-0.163183	-0.195971	0
1309.98	-0.161141	-0.195967	0
1309.98	-0.158926	-0.195971	0
1309.99	-0.156788	-0.195968	0
1310	-0.154707	-0.195968	0
1310.01	-0.152626	-0.195967	0
1310.02	-0.150335	-0.195968	0
1310.03	-0.148254	-0.195961	0
1310.04	-0.14604	-0.195967	0
1310.05	-0.143863	-0.195963	0
1310.06	-0.141763	-0.195972	0
1310.08	-0.139701	-0.195965	0
1310.09	-0.137563	-0.195967	0
1310.1	-0.135482	-0.195963	0
1310.11	-0.133459	-0.195967	0
1310.13	-0.131416	-0.195976	0
1310.15	-0.129259	-0.195966	0
1310.17	-0.12712	-0.195966	0
1310.19	-0.124982	-0.195964	0
1310.21	-0.122901	-0.195962	0
1310.24	-0.12084	-0.195966	0
1310.28	-0.118797	-0.195962	0
1310.32	-0.116716	-0.195963	0
1310.37	-0.114616	-0.195974	0
1310.45	-0.112573	-0.195964	0
1310.55	-0.110435	-0.195966	0
1310.71	-0.108335	-0.195967	0
1310.98	-0.106235	-0.19597	0
1311.78	-0.104192	-0.195969	0
1316.46	-0.106235	-0.195968	0
1319.57	-0.108278	-0.195965	0
1322.82	-0.110301	-0.195963	0
1326.43	-0.112325	-0.195964	0
1330.49	-0.114406	-0.195972	0
1334.88	-0.116468	-0.19597	0
1339.64	-0.118491	-0.195969	0
1344.99	-0.120515	-0.195962	0
1350.51	-0.122539	-0.195964	0
1357.12	-0.124639	-0.195967	0
1364.48	-0.1267	-0.195964	0
1372.38	-0.128762	-0.19597	0
1381.05	-0.130786	-0.195967	0
1391.46	-0.132848	-0.195968	0
1402.6	-0.134871	-0.19597	0
1414.79	-0.136952	-0.195972	0
1428.09	-0.139071	-0.19597	0
1441.63	-0.141095	-0.195967	0
1456.45	-0.143157	-0.195965	0
1472.01	-0.1452	-0.195973	0
1489.35	-0.147262	-0.195964	0
1509.15	-0.149132	-0.195963	0
1528.99	-0.150889	-0.195969	0
1548.99	-0.152244	-0.195966	0
1568.99	-0.153619	-0.195972	0
1588.99	-0.154726	-0.19597	0
1608.99	-0.155566	-0.195972	0
1628.99	-0.156234	-0.195972	0
1648.99	-0.15675	-0.195968	0
1668.99	-0.15717	-0.195967	0
1688.99	-0.157437	-0.195972	0
1708.99	-0.157723	-0.19597	0
1728.99	-0.157685	-0.195972	0
1748.99	-0.157685	-0.195973	0
1768.99	-0.157742	-0.19597	0
1788.99	-0.157628	-0.195973	0
1808.99	-0.157532	-0.195966	0
1828.99	-0.157227	-0.195971	0
1848.99	-0.15696	-0.195967	0
1868.99	-0.156654	-0.195973	0
1888.99	-0.156444	-0.195968	0
1908.99	-0.156101	-0.195969	0
1928.99	-0.155872	-0.195969	0
1948.99	-0.155681	-0.195972	0
1968.99	-0.155413	-0.19597	0
1988.99	-0.155032	-0.195972	0
2008.99	-0.154631	-0.195968	0
2028.99	-0.154287	-0.195968	0
2048.99	-0.15402	-0.195967	0
2068.99	-0.153657	-0.195975	0
2088.99	-0.153313	-0.195963	0
2108.99	-0.152893	-0.195976	0
2128.99	-0.152645	-0.19597	0
2148.99	-0.152416	-0.195968	0
2168.99	-0.152072	-0.195972	0
2188.99	-0.151729	-0.195962	0
2208.99	-0.151309	-0.19597	0
2228.99	-0.150965	-0.195968	0
2248.99	-0.150698	-0.19597	0
2268.99	-0.150297	-0.19597	0
2288.99	-0.149992	-0.195974	0
2308.99	-0.149743	-0.19597	0
2328.99	-0.149266	-0.195969	0
2348.99	-0.148922	-0.195968	0
2368.99	-0.148655	-0.195967	0
2388.99	-0.148331	-0.195978	0
2408.99	-0.148082	-0.195972	0
2428.99	-0.147739	-0.195961	0
2448.99	-0.147376	-0.195968	0
2468.99	-0.147013	-0.195968	0
2488.99	-0.146784	-0.195963	0
2508.99	-0.146383	-0.195972	0
2528.99	-0.146116	-0.195971	0
2548.99	-0.145887	-0.195968	0
2568.99	-0.145582	-0.195971	0
2588.99	-0.145333	-0.195965	0
2608.99	-0.145047	-0.195971	0
2628.99	-0.144684	-0.195972	0
2648.99	-0.144379	-0.195969	0
2668.99	-0.144054	-0.195961	0
2688.99	-0.14373	-0.195967	0
2708.99	-0.143501	-0.195967	0
2728.99	-0.143252	-0.195971	0
2748.99	-0.142909	-0.195964	0
2768.99	-0.142641	-0.195964	0
2788.99	-0.142355	-0.195973	0
2808.99	-0.142088	-0.195965	0
2828.99	-0.141801	-0.195969	0
2848.99	-0.141515	-0.19597	0
2868.99	-0.141248	-0.19597	0
2888.99	-0.141057	-0.195968	0
2908.99	-0.140713	-0.195963	0
2928.99	-0.140503	-0.195972	0
2948.99	-0.140331	-0.195965	0
2968.99	-0.139969	-0.195975	0
2988.99	-0.139606	-0.19597	0
3008.99	-0.139396	-0.195968	0
3028.99	-0.139014	-0.195967	0
3048.99	-0.138938	-0.195972	0
3068.99	-0.138632	-0.195968	0
3088.99	-0.138403	-0.195967	0
3108.99	-0.138174	-0.195968	0
3109.49	-0.138002	-0.195964	0