File: EXPERIMENTAL/Data/Battery-cycling/E-measurements/C-cell/2024-04-26_E-measurements_sample-Ionic-electrolyte-03_C-cell_Cu-Li-Cellgard2400-separator_25muL-ionic-electrolyte_outside-glovebox_sigma-0.02_added-OCV-0.1s_04_CP_C01.txt
time/s	Ewe/V	I/mA	error
2551.97	-0.0880237	-0.194479	0
2551.98	-0.213145	-0.195962	0
2551.98	-0.257608	-0.195958	0
2551.99	-0.292773	-0.19596	0
2551.99	-0.322212	-0.19596	0
2552	-0.355316	-0.195964	0
2552.01	-0.388839	-0.195965	0
2552.02	-0.415834	-0.195962	0
2552.03	-0.444967	-0.195963	0
2552.05	-0.471637	-0.19596	0
2552.07	-0.497964	-0.195963	0
2552.09	-0.523928	-0.195963	0
2552.12	-0.550426	-0.195963	0
2552.15	-0.575951	-0.195965	0
2552.18	-0.601323	-0.19596	0
2552.21	-0.626351	-0.195964	0
2552.24	-0.651341	-0.195955	0
2552.28	-0.676541	-0.19596	0
2552.31	-0.701474	-0.195963	0
2552.35	-0.727094	-0.195962	0
2552.39	-0.751989	-0.195965	0
2552.43	-0.776941	-0.195961	0
2552.48	-0.802008	-0.195963	0
2552.52	-0.826979	-0.195969	0
2552.57	-0.851682	-0.195961	0
2552.62	-0.876482	-0.195962	0
2552.67	-0.901033	-0.195968	0
2552.72	-0.925698	-0.195961	0
2552.78	-0.950918	-0.195962	0
2552.84	-0.97566	-0.195968	0
2552.91	-1.00071	-0.195963	0
2552.98	-1.02549	-0.195963	0
2553.05	-1.04994	-0.195967	0
2553.13	-1.07463	-0.195963	0
2553.21	-1.09889	-0.195965	0
2553.3	-1.12329	-0.195965	0
2553.39	-1.14809	-0.195958	0
2553.48	-1.1727	-0.195968	0
2553.59	-1.19738	-0.195959	0
2553.69	-1.22148	-0.195968	0
2553.81	-1.24549	-0.19596	0
2553.94	-1.2698	-0.195965	0
2554.09	-1.29406	-0.195968	0
2554.25	-1.31819	-0.19596	0
2554.43	-1.34223	-0.195966	0
2554.64	-1.36599	-0.195963	0
2554.87	-1.38997	-0.195965	0
2555.13	-1.41407	-0.195963	0
2555.39	-1.43787	-0.195963	0
2555.66	-1.46191	-0.195964	0
2555.92	-1.48564	-0.195968	0
2556.19	-1.50958	-0.195958	0
2556.45	-1.5334	-0.195959	0
2556.71	-1.55731	-0.195967	0
2556.97	-1.58121	-0.195959	0
2557.24	-1.60538	-0.195965	0
2557.51	-1.62966	-0.195967	0
2557.77	-1.65373	-0.195957	0
2558.04	-1.67746	-0.195964	0
2558.3	-1.70139	-0.195965	0
2558.57	-1.72517	-0.195967	0
2558.84	-1.74888	-0.195963	0
2559.11	-1.77294	-0.195968	0
2559.39	-1.79684	-0.19596	0
2559.67	-1.8208	-0.195965	0
2559.95	-1.84489	-0.195959	0
2560.23	-1.86887	-0.195965	0
2560.52	-1.89266	-0.195969	0
2560.81	-1.91645	-0.195964	0
2561.1	-1.9401	-0.195962	0
2561.39	-1.96385	-0.19596	0
2561.69	-1.98779	-0.195968	0
2561.98	-2.01158	-0.195961	0
2562.29	-2.03536	-0.195964	0
2562.59	-2.05913	-0.195961	0
2562.9	-2.08292	-0.195969	0
2563.21	-2.10678	-0.195968	0
2563.53	-2.13071	-0.195963	0
2563.86	-2.15451	-0.195966	0
2564.19	-2.17851	-0.195967	0
2564.51	-2.20239	-0.195964	0
2564.82	-2.22638	-0.195963	0
2565.13	-2.25053	-0.195962	0
2565.43	-2.27461	-0.195961	0
2565.72	-2.29893	-0.195967	0
2566	-2.32272	-0.195962	0
2566.28	-2.34647	-0.195968	0
2566.55	-2.37046	-0.195966	0
2566.81	-2.39423	-0.195972	0
2567.08	-2.41859	-0.195969	0
2567.33	-2.44274	-0.195967	0
2567.59	-2.46685	-0.195963	0
2567.83	-2.49074	-0.195961	0
2568.08	-2.51462	-0.19597	0
2568.32	-2.53887	-0.195966	0
2568.57	-2.56309	-0.195963	0
2568.8	-2.58705	-0.195965	0
2569.04	-2.61141	-0.195969	0
2569.27	-2.63556	-0.195967	0
2569.5	-2.65967	-0.195965	0
2569.73	-2.68358	-0.195964	0
2569.95	-2.70769	-0.195961	0
2570.17	-2.73161	-0.195963	0
2570.39	-2.75591	-0.195961	0
2570.61	-2.77993	-0.195962	0
2570.82	-2.80377	-0.195963	0
2571.04	-2.82794	-0.195967	0
2571.25	-2.85202	-0.195968	0
2571.46	-2.87624	-0.195958	0
2571.66	-2.90011	-0.195966	0
2571.86	-2.92389	-0.195968	0
2572.07	-2.94799	-0.195963	0
2572.27	-2.972	-0.195963	0
2572.47	-2.99613	-0.195965	0
2572.67	-3.02002	-0.195965	0
2572.88	-3.04432	-0.195965	0
2573.08	-3.06813	-0.195961	0
2573.28	-3.09214	-0.195967	0
2573.48	-3.11633	-0.195972	0
2573.68	-3.1406	-0.195967	0
2573.88	-3.16455	-0.195967	0
2574.08	-3.18846	-0.195964	0
2574.29	-3.2128	-0.195967	0
2574.49	-3.23687	-0.195965	0
2574.69	-3.26085	-0.195965	0
2574.9	-3.28498	-0.195961	0
2575.11	-3.30915	-0.195966	0
2575.32	-3.33343	-0.195968	0
2575.53	-3.35751	-0.195964	0
2575.73	-3.3813	-0.195967	0
2575.95	-3.40541	-0.195961	0
2576.16	-3.42948	-0.195967	0
2576.37	-3.45334	-0.19596	0
2576.59	-3.47728	-0.195962	0
2576.81	-3.50138	-0.195972	0
2577.03	-3.52539	-0.195967	0
2577.25	-3.54924	-0.195961	0
2577.48	-3.57343	-0.195966	0
2577.71	-3.59723	-0.195961	0
2577.94	-3.62121	-0.195965	0
2578.18	-3.64519	-0.195965	0
2578.42	-3.66904	-0.195963	0
2578.66	-3.69284	-0.195965	0
2578.92	-3.71669	-0.195967	0
2579.18	-3.74084	-0.195968	0
2579.44	-3.76445	-0.195963	0
2579.71	-3.78822	-0.195962	0
2579.99	-3.81239	-0.195966	0
2580.27	-3.83635	-0.195959	0
2580.56	-3.86033	-0.195961	0
2580.84	-3.88404	-0.195961	0
2581.12	-3.90796	-0.195968	0
2581.41	-3.93186	-0.195965	0
2581.69	-3.95586	-0.195965	0
2581.96	-3.97974	-0.195959	0
2582.24	-4.00372	-0.195966	0
2582.51	-4.02753	-0.19596	0
2582.78	-4.05158	-0.195967	0
2583.04	-4.07554	-0.195966	0
2583.3	-4.09952	-0.195973	0
2583.57	-4.12373	-0.195962	0
2583.83	-4.14772	-0.195961	0
2584.08	-4.17178	-0.195964	0
2584.34	-4.19578	-0.195961	0
2584.59	-4.22028	-0.195958	0
2584.84	-4.24443	-0.195966	0
2585.1	-4.26871	-0.195963	0
2585.35	-4.29282	-0.195965	0
2585.59	-4.31667	-0.195963	0
2585.84	-4.34051	-0.195964	0
2586.09	-4.36462	-0.195967	0
2586.34	-4.38893	-0.195969	0
2586.58	-4.41291	-0.195967	0
2586.83	-4.43688	-0.195967	0
2587.08	-4.46088	-0.195967	0
2587.33	-4.48492	-0.19596	0
2587.58	-4.50905	-0.195972	0
2587.83	-4.53303	-0.195965	0
2588.08	-4.55683	-0.195964	0
2588.34	-4.58066	-0.195967	0
2588.6	-4.60458	-0.195964	0
2588.87	-4.62863	-0.195963	0
2589.15	-4.65288	-0.195966	0
2589.42	-4.6768	-0.195972	0
2589.71	-4.70089	-0.195971	0
2589.99	-4.72495	-0.195963	0
2590.27	-4.74929	-0.195967	0
2590.56	-4.77359	-0.195968	0
2590.84	-4.7974	-0.195961	0
2591.13	-4.82168	-0.19596	0
2591.42	-4.84543	-0.195964	0
2591.71	-4.86966	-0.195967	0
2592.01	-4.89369	-0.195965	0
2592.32	-4.91777	-0.195965	0
2592.63	-4.94188	-0.195965	0
2592.95	-4.9659	-0.195956	0
2593.27	-4.98997	-0.195959	0
2593.6	-5.01391	-0.195963	0
2593.95	-5.03808	-0.195964	0
2594.29	-5.06179	-0.195966	0
2594.65	-5.08583	-0.19596	0
2595.02	-5.10967	-0.195969	0
2595.4	-5.13382	-0.195961	0
2595.79	-5.15774	-0.195961	0
2596.19	-5.18151	-0.195968	0
2596.61	-5.20537	-0.195959	0
2597.04	-5.22956	-0.195961	0
2597.5	-5.25345	-0.195958	0
2597.97	-5.27737	-0.195965	0
2598.47	-5.3014	-0.195967	0
2599	-5.32509	-0.195969	0
2599.57	-5.3488	-0.195966	0
2600.18	-5.37275	-0.19596	0
2600.83	-5.39655	-0.195961	0
2601.55	-5.42036	-0.195964	0
2602.33	-5.44437	-0.195967	0
2603.15	-5.46803	-0.195963	0
2604.03	-5.49182	-0.195964	0
2604.98	-5.5153	-0.195962	0
2606.08	-5.53893	-0.19596	0
2607.42	-5.56247	-0.195968	0
2608.76	-5.58616	-0.195963	0
2610.12	-5.61001	-0.195965	0
2611.55	-5.63347	-0.195961	0
2613.19	-5.65716	-0.195964	0
2615.36	-5.68091	-0.195962	0
2618.4	-5.70441	-0.19597	0
2623.62	-5.7279	-0.195965	0
2643.77	-5.74126	-0.195965	0
2656.72	-5.7178	-0.19597	0
2665.87	-5.69431	-0.195965	0
2673.6	-5.67074	-0.195972	0
2680.48	-5.64724	-0.195964	0
2686.59	-5.6237	-0.195965	0
2692.27	-5.60012	-0.195968	0
2697.36	-5.57656	-0.195964	0
2701.74	-5.55304	-0.195961	0
2705.83	-5.52927	-0.195967	0
2709.64	-5.50549	-0.19597	0
2713.17	-5.48198	-0.195965	0
2716.45	-5.45843	-0.195965	0
2719.52	-5.43471	-0.195965	0
2722.33	-5.41116	-0.195968	0
2724.93	-5.38756	-0.195967	0
2727.3	-5.36396	-0.195965	0
2729.43	-5.34023	-0.195968	0
2731.3	-5.31671	-0.195967	0
2732.94	-5.29287	-0.195967	0
2734.32	-5.26921	-0.195967	0
2735.44	-5.24554	-0.195963	0
2736.34	-5.22168	-0.195968	0
2737.03	-5.19797	-0.195965	0
2737.55	-5.17399	-0.195961	0
2737.95	-5.1498	-0.19597	0
2738.24	-5.12592	-0.195968	0
2738.46	-5.10173	-0.195963	0
2738.64	-5.07735	-0.195969	0
2738.77	-5.05339	-0.195962	0
2738.88	-5.02932	-0.195961	0
2738.97	-5.00482	-0.195967	0
2739.05	-4.98048	-0.195972	0
2739.12	-4.95595	-0.195965	0
2739.17	-4.9313	-0.19597	0
2739.23	-4.90654	-0.195963	0
2739.28	-4.88186	-0.195961	0
2739.32	-4.85658	-0.195966	0
2739.36	-4.8315	-0.195963	0
2739.41	-4.80694	-0.195965	0
2739.45	-4.78201	-0.195971	0
2739.48	-4.75673	-0.19597	0
2739.52	-4.73209	-0.195968	0
2739.56	-4.70649	-0.195965	0
2739.6	-4.68098	-0.195967	0
2739.64	-4.65538	-0.195965	0
2739.68	-4.62959	-0.195968	0
2739.72	-4.60471	-0.19596	0
2739.76	-4.5803	-0.195962	0
2739.82	-4.55559	-0.195969	0
2739.9	-4.53108	-0.195967	0
2740.25	-4.50706	-0.195965	0
2741.43	-4.48318	-0.195963	0
2751.63	-4.45964	-0.195965	0
2786.89	-4.43614	-0.195967	0
2850.24	-4.41264	-0.195968	0
3029.54	-4.39989	-0.195965	0
3259.23	-4.41168	-0.195963	0
3489.23	-4.42365	-0.195968	0
3716.65	-4.43694	-0.195967	0
3819.68	-4.4429	-0.195964	0
3997.89	-4.45223	-0.195965	0
4101.89	-4.45884	-0.195968	0
4229.01	-4.46844	-0.195967	0
4301.43	-4.47436	-0.195965	0
4340.45	-4.47745	-0.19597	0
4346.1	-4.47845	-0.195968	0
4351.97	-4.47907	-0.195961	0