File: EXPERIMENTAL/Data/Battery-cycling/E-measurements/C-cell/2024-04-25_E-measurements_sample-Ionic-electrolyte-01_C-cell_Cu-Li-Cellgard2400-separator_25muL-ionic-electrolyte_outside-glovebox_sigma-0.02_added-OCV-0.1s_02_MB_C01.txt
time/s	Ewe/V	I/mA	error
60.053	2.20598	-0.0250252	0
60.1132	0.00939951	-0.174935	0
60.1916	0.00945679	-0.124927	0
60.46	0.00945679	-0.0749067	0
65.0528	0.00953315	-0.0270211	0
65.0534	0.00949497	-0.0270211	0
75.0534	0.0094377	-0.0193271	0
85.0534	0.0094377	-0.017205	0
95.0534	0.0094377	-0.0160663	0
105.053	0.00934224	-0.0152618	0
115.053	0.00947588	-0.0146666	0
125.053	0.00938042	-0.0141574	0
135.053	0.0094377	-0.0137061	0
145.053	0.0094186	-0.0132262	0
155.053	0.00947588	-0.0128672	0
165.053	0.00951406	-0.012612	0
175.053	0.0094186	-0.0123268	0
185.053	0.0094377	-0.01205	0
195.053	0.00939951	-0.0118049	0
205.053	0.00939951	-0.0115758	0
215.053	0.00938042	-0.0113447	0
225.053	0.00953315	-0.0111347	0
235.053	0.00945679	-0.0109431	0
245.053	0.00932315	-0.0107388	0
255.053	0.00953315	-0.0105746	0
265.053	0.00939951	-0.0104008	0
275.053	0.0094186	-0.0102251	0
285.053	0.0094377	-0.0100768	0
295.053	0.0094377	-0.00992723	0
305.053	0.0094186	-0.00979166	0
315.053	0.0094186	-0.009665	0
325.053	0.00951406	-0.00954852	0
335.053	0.00949497	-0.00942185	0
345.053	0.00947588	-0.00930856	0
355.053	0.00939951	-0.0092169	0
365.053	0.00939951	-0.00911378	0
375.053	0.00951406	-0.00900367	0
385.053	0.00945679	-0.00892474	0
395.053	0.00939951	-0.00882863	0
405.053	0.00936133	-0.00873952	0
415.053	0.00936133	-0.00865996	0
425.053	0.00951406	-0.0085874	0
435.053	0.00936133	-0.00851038	0
445.053	0.00947588	-0.00844164	0
455.053	0.00947588	-0.00838181	0
465.053	0.00949497	-0.00832007	0
475.053	0.00951406	-0.00825896	0
485.053	0.00947588	-0.00819277	0
495.053	0.00953315	-0.00812212	0
505.053	0.00939951	-0.00806101	0
515.053	0.0094186	-0.00799863	0
525.053	0.00936133	-0.00792925	0
535.053	0.00947588	-0.00786433	0
545.053	0.00939951	-0.00780514	0
555.053	0.00936133	-0.00773894	0
565.053	0.00938042	-0.00766893	0
575.053	0.00939951	-0.00761801	0
585.053	0.0094186	-0.00753844	0
595.053	0.00951406	-0.0074888	0
605.053	0.00939951	-0.00742324	0
615.053	0.0094186	-0.00736086	0
625.053	0.00949497	-0.0072953	0
635.053	0.00945679	-0.00724756	0
645.053	0.00938042	-0.00718773	0
655.053	0.00945679	-0.00713108	0
665.053	0.0094377	-0.0070738	0
675.053	0.00953315	-0.00702097	0
685.053	0.0094377	-0.00697259	0
695.053	0.00939951	-0.00692358	0
705.053	0.00947588	-0.00686248	0
715.053	0.0094377	-0.00681028	0
725.053	0.00951406	-0.00676764	0
735.053	0.00928497	-0.00671927	0
745.053	0.00934224	-0.00666198	0
755.053	0.0094186	-0.00660088	0
765.053	0.00932315	-0.00656332	0
775.053	0.00938042	-0.00650795	0
785.053	0.00945679	-0.00647358	0
795.053	0.0094377	-0.00641438	0
805.053	0.0094377	-0.00636664	0
815.053	0.00945679	-0.00632145	0
825.053	0.0094377	-0.00629726	0
835.053	0.00947588	-0.00623616	0
845.053	0.0094186	-0.00620434	0
855.053	0.00945679	-0.00615533	0
865.053	0.00947588	-0.00611586	0
875.053	0.00938042	-0.00607704	0
885.053	0.00936133	-0.00602739	0
895.053	0.00949497	-0.00598792	0
905.053	0.00955224	-0.00595419	0
915.053	0.00939951	-0.00591727	0
925.053	0.00939951	-0.00587145	0
935.053	0.0094186	-0.00582944	0
945.053	0.00938042	-0.00579316	0
955.053	0.00936133	-0.0057486	0
965.053	0.00938042	-0.0057225	0
975.053	0.00949497	-0.00567158	0
985.053	0.0094377	-0.00565631	0
995.053	0.00949497	-0.00560921	0
1005.05	0.00949497	-0.00558056	0
1015.05	0.00938042	-0.0055481	0
1025.05	0.0094377	-0.00551309	0
1035.05	0.00947588	-0.00546854	0
1045.05	0.00945679	-0.00544117	0
1055.05	0.00949497	-0.00541062	0
1065.05	0.00936133	-0.00538707	0
1075.05	0.00939951	-0.00535524	0
1085.05	0.0094377	-0.0053196	0
1095.05	0.00947588	-0.00529223	0
1105.05	0.00936133	-0.00525277	0
1115.05	0.0094186	-0.00522476	0
1125.05	0.00938042	-0.0051993	0
1135.05	0.00939951	-0.00516556	0
1145.05	0.00932315	-0.00513247	0
1155.05	0.00939951	-0.00510828	0
1165.05	0.0094186	-0.00508282	0
1175.05	0.0094377	-0.00510064	0
1185.05	0.00949497	-0.00504399	0
1195.05	0.0094377	-0.00502044	0
1205.05	0.0094186	-0.00498798	0
1215.05	0.00939951	-0.00494024	0
1225.05	0.00951406	-0.00490969	0
1235.05	0.00957133	-0.00488359	0
1245.05	0.00930406	-0.00486323	0
1255.05	0.0094186	-0.00484222	0
1265.05	0.00938042	-0.00481294	0
1275.05	0.00939951	-0.00479194	0
1285.05	0.00938042	-0.00475629	0
1295.05	0.0094186	-0.00474038	0
1305.05	0.00947588	-0.0047232	0
1315.05	0.00938042	-0.00469328	0
1325.05	0.0094186	-0.00466718	0
1335.05	0.0094377	-0.00464618	0
1345.05	0.00939951	-0.00462708	0
1355.05	0.00949497	-0.00460226	0
1365.05	0.00953315	-0.00457553	0
1375.05	0.00949497	-0.00454688	0
1385.05	0.00936133	-0.00451888	0
1395.05	0.0094377	-0.00450424	0
1405.05	0.00951406	-0.00449548	0
1415.05	0.00947588	-0.00447416	0
1425.05	0.0094186	-0.00444665	0
1435.05	0.00936133	-0.00442106	0
1445.05	0.00945679	-0.00439795	0
1455.05	0.00939951	-0.00437631	0
1465.05	0.00945679	-0.00436249	0
1475.05	0.0094377	-0.00433296	0
1485.05	0.00945679	-0.0043215	0
1495.05	0.00939951	-0.00428903	0
1505.05	0.00947588	-0.00427439	0
1515.05	0.00949497	-0.00425401	0
1525.05	0.00936133	-0.00423383	0
1535.05	0.0094186	-0.00421442	0
1545.05	0.00947588	-0.00420181	0
1555.05	0.00953315	-0.00418125	0
1565.05	0.00949497	-0.00416501	0
1575.05	0.0094377	-0.00414541	0
1585.05	0.00939951	-0.00411638	0
1595.05	0.00947588	-0.00410282	0
1605.05	0.0094186	-0.00408645	0
1615.05	0.00951406	-0.00406634	0
1625.05	0.0094186	-0.00405004	0
1635.05	0.0094186	-0.00402738	0
1645.05	0.0094377	-0.00400611	0
1655.05	0.00951406	-0.00396047	0
1665.05	0.00939951	-0.00396728	0
1675.05	0.0094377	-0.0039513	0
1685.05	0.0094186	-0.00393328	0
1690.61	0.00936133	-0.00391756	0
1690.61	0.0094377	-0.00392819	0