File: EXPERIMENTAL/Data/Battery-cycling/E-measurements/C-cell/2024-04-26_E-measurements_sample-Ionic-electrolyte-03_C-cell_Cu-Li-Cellgard2400-separator_25muL-ionic-electrolyte_outside-glovebox_sigma-0.02_added-OCV-0.1s_02_MB_C01.txt
time/s	Ewe/V	I/mA	error
60.053	2.51254	-0.0250252	0
60.1132	0.00939951	-1.00885	0
60.119	0.00938042	-0.958356	0
60.1258	0.00936133	-0.907463	0
60.1338	0.00934224	-0.856252	0
60.143	0.00945679	-0.805786	0
60.1538	0.00945679	-0.755377	0
60.1666	0.0094377	-0.704688	0
60.1818	0.00947588	-0.654158	0
60.2	0.00932315	-0.603839	0
60.2222	0.00949497	-0.553558	0
60.2496	0.00949497	-0.503493	0
60.2844	0.00939951	-0.453332	0
60.3298	0.00949497	-0.40321	0
60.3914	0.0094186	-0.353151	0
60.4788	0.00949497	-0.303144	0
60.6104	0.00945679	-0.253136	0
60.8272	0.00938042	-0.203116	0
61.2346	0.00951406	-0.15307	0
62.2582	0.00953315	-0.103062	0
65.0528	0.00947588	-0.0652923	0
65.0534	0.0094186	-0.0653496	0
75.0534	0.0094186	-0.0384572	0
85.0534	0.00945679	-0.0314213	0
95.0534	0.00934224	-0.0280892	0
105.053	0.00939951	-0.0260988	0
115.053	0.0094186	-0.0246934	0
125.053	0.00945679	-0.0236661	0
135.053	0.00939951	-0.0228342	0
145.053	0.00949497	-0.0221271	0
155.053	0.00945679	-0.0215109	0
165.053	0.0094377	-0.0209788	0
175.053	0.00928497	-0.0205002	0
185.053	0.00945679	-0.0200635	0
195.053	0.00945679	-0.0196466	0
205.053	0.0094186	-0.0192685	0
215.053	0.00934224	-0.0189395	0
225.053	0.00945679	-0.0186117	0
235.053	0.00939951	-0.0183182	0
245.053	0.0094377	-0.0180439	0
255.053	0.00945679	-0.0177683	0
265.053	0.00945679	-0.0175067	0
275.053	0.00953315	-0.0172572	0
285.053	0.00938042	-0.0170172	0
295.053	0.00949497	-0.0167925	0
305.053	0.00939951	-0.0165946	0
315.053	0.00939951	-0.0163884	0
325.053	0.00955224	-0.016205	0
335.053	0.00936133	-0.0160001	0
345.053	0.00945679	-0.01582	0
355.053	0.00957133	-0.0156239	0
365.053	0.00939951	-0.0154769	0
375.053	0.00947588	-0.0152853	0
385.053	0.00951406	-0.0151211	0
395.053	0.00947588	-0.014962	0
405.053	0.00936133	-0.0148238	0
415.053	0.0094186	-0.0146794	0
425.053	0.00951406	-0.0145342	0
435.053	0.0094377	-0.0143681	0
445.053	0.00947588	-0.0142427	0
455.053	0.00938042	-0.0141046	0
465.053	0.00947588	-0.0139773	0
475.053	0.0094186	-0.0138462	0
485.053	0.00947588	-0.0137501	0
495.053	0.00938042	-0.0136189	0
505.053	0.00951406	-0.0134967	0
515.053	0.00945679	-0.0133936	0
525.053	0.0094186	-0.0132733	0
535.053	0.0094377	-0.0131658	0
545.053	0.00939951	-0.0130563	0
555.053	0.0094186	-0.0129544	0
565.053	0.00939951	-0.0128494	0
575.053	0.0094377	-0.0127393	0
585.053	0.00939951	-0.0126356	0
595.053	0.00947588	-0.0125407	0
605.053	0.00945679	-0.0124427	0
615.053	0.00938042	-0.0123358	0
625.053	0.0094377	-0.012246	0
635.053	0.00947588	-0.0121588	0
645.053	0.0094377	-0.0120493	0
655.053	0.0094186	-0.0119647	0
665.053	0.00947588	-0.0118756	0
675.053	0.00938042	-0.0117661	0
685.053	0.0094377	-0.0116973	0
695.053	0.00938042	-0.0116012	0
705.053	0.00947588	-0.0115147	0
715.053	0.00938042	-0.0114198	0
725.053	0.00939951	-0.0113371	0
735.053	0.00945679	-0.0112588	0
745.053	0.0094377	-0.0111811	0
755.053	0.00947588	-0.0110723	0
765.053	0.00949497	-0.0110067	0
775.053	0.00945679	-0.0109399	0
785.053	0.00939951	-0.0108483	0
795.053	0.0094186	-0.010784	0
805.053	0.00947588	-0.0106923	0
815.053	0.0094377	-0.0106185	0
825.053	0.00947588	-0.0105478	0
835.053	0.0094377	-0.0104746	0
845.053	0.00949497	-0.0103874	0
855.053	0.0094377	-0.0103403	0
865.053	0.0094186	-0.0102557	0
875.053	0.00949497	-0.0101793	0
885.053	0.0094377	-0.010108	0
895.053	0.00939951	-0.0100265	0
905.053	0.0094186	-0.00996924	0
915.053	0.00953315	-0.00989732	0
925.053	0.00949497	-0.0098203	0
935.053	0.00947588	-0.00976747	0
945.053	0.0094377	-0.00968536	0
955.053	0.00934224	-0.00963954	0
965.053	0.00957133	-0.00956125	0
975.053	0.0094377	-0.00948741	0
985.053	0.00945679	-0.00941867	0
995.053	0.0094186	-0.00934802	0
1005.05	0.00939951	-0.00926527	0
1015.05	0.00945679	-0.00921435	0
1025.05	0.00945679	-0.00916534	0
1035.05	0.00939951	-0.00909405	0
1045.05	0.00945679	-0.00903104	0
1055.05	0.0094377	-0.00895784	0
1065.05	0.00957133	-0.00889101	0
1075.05	0.00945679	-0.00883754	0
1085.05	0.0094377	-0.00879872	0
1095.05	0.0094377	-0.00871152	0
1105.05	0.00939951	-0.0086485	0
1115.05	0.00945679	-0.00861286	0
1125.05	0.0094186	-0.00852629	0
1135.05	0.0094377	-0.00848556	0
1145.05	0.00945679	-0.00843082	0
1155.05	0.00936133	-0.00839199	0
1165.05	0.00936133	-0.00831434	0
1175.05	0.00945679	-0.00826215	0
1185.05	0.00938042	-0.00820995	0
1195.05	0.00947588	-0.0081724	0
1205.05	0.00939951	-0.00807756	0
1215.05	0.00949497	-0.0080381	0
1225.05	0.00932315	-0.0079859	0
1235.05	0.0094186	-0.00795344	0
1245.05	0.00945679	-0.00789998	0
1255.05	0.0094186	-0.0078446	0
1265.05	0.00945679	-0.00780132	0
1275.05	0.00939951	-0.00775676	0
1285.05	0.0094186	-0.00770202	0
1295.05	0.00945679	-0.00766002	0
1305.05	0.00939951	-0.00760846	0
1315.05	0.00947588	-0.00757472	0
1325.05	0.00939951	-0.00752508	0
1335.05	0.0094186	-0.00745124	0
1345.05	0.00936133	-0.00742515	0
1355.05	0.00934224	-0.0073685	0
1365.05	0.00945679	-0.00732903	0
1375.05	0.00939951	-0.00728002	0
1385.05	0.00938042	-0.00724629	0
1395.05	0.00947588	-0.00718773	0
1405.05	0.00947588	-0.00715718	0
1415.05	0.00939951	-0.00712026	0
1425.05	0.00945679	-0.00706107	0
1435.05	0.0094377	-0.00704134	0
1445.05	0.00949497	-0.00699678	0
1455.05	0.00939951	-0.00694777	0
1465.05	0.00938042	-0.00690067	0
1475.05	0.0094377	-0.00687075	0
1485.05	0.0094186	-0.00684402	0
1495.05	0.00951406	-0.00679883	0
1505.05	0.00953315	-0.00675491	0
1515.05	0.00934224	-0.00673136	0
1525.05	0.00945679	-0.00667535	0
1535.05	0.00949497	-0.00664734	0
1545.05	0.00945679	-0.00661488	0
1555.05	0.00953315	-0.00658687	0
1565.05	0.00947588	-0.00654295	0
1575.05	0.0094186	-0.0064984	0
1585.05	0.0094377	-0.00646785	0
1595.05	0.0094186	-0.00642393	0
1605.05	0.0094377	-0.00639338	0
1615.05	0.0094377	-0.00635773	0
1625.05	0.00951406	-0.00632081	0
1635.05	0.00939951	-0.00628899	0
1645.05	0.00924679	-0.00625526	0
1655.05	0.00945679	-0.00621388	0
1665.05	0.00949497	-0.0061846	0
1675.05	0.00947588	-0.00615469	0
1685.05	0.00945679	-0.00612477	0
1695.05	0.00953315	-0.00608276	0
1705.05	0.00947588	-0.00604712	0
1715.05	0.00934224	-0.00603885	0
1725.05	0.00938042	-0.00598474	0
1735.05	0.00955224	-0.00596183	0
1745.05	0.00945679	-0.00592491	0
1755.05	0.00945679	-0.00588545	0
1765.05	0.00949497	-0.00587399	0
1775.05	0.00936133	-0.00581607	0
1785.05	0.00949497	-0.00581098	0
1795.05	0.00947588	-0.00576006	0
1805.05	0.00947588	-0.00574351	0
1815.05	0.0094186	-0.00571614	0
1825.05	0.00945679	-0.00568686	0
1835.05	0.00938042	-0.00566776	0
1845.05	0.00947588	-0.00562066	0
1855.05	0.0094186	-0.00557865	0
1865.05	0.00945679	-0.0055672	0
1875.05	0.00951406	-0.00553474	0
1885.05	0.0094186	-0.00549082	0
1895.05	0.00939951	-0.00546536	0
1905.05	0.00947588	-0.00543735	0
1915.05	0.00936133	-0.00541953	0
1925.05	0.00932315	-0.00540871	0
1935.05	0.00939951	-0.00537179	0
1945.05	0.00947588	-0.00532342	0
1955.05	0.00939951	-0.00531323	0
1965.05	0.00945679	-0.00528204	0
1975.05	0.00936133	-0.00525213	0
1985.05	0.00945679	-0.00522667	0
1995.05	0.00947588	-0.00518848	0
2005.05	0.00949497	-0.0051783	0
2015.05	0.00939951	-0.00514774	0
2025.05	0.00947588	-0.00511592	0
2035.05	0.00945679	-0.00509428	0
2045.05	0.00945679	-0.00505927	0
2055.05	0.00932315	-0.00505163	0
2065.05	0.0094186	-0.00501599	0
2075.05	0.00936133	-0.00498862	0
2085.05	0.00947588	-0.00496507	0
2095.05	0.00938042	-0.00494088	0
2105.05	0.00947588	-0.00490842	0
2115.05	0.00949497	-0.00489123	0
2125.05	0.00945679	-0.00486577	0
2135.05	0.00939951	-0.00484095	0
2145.05	0.00949497	-0.0048174	0
2155.05	0.00938042	-0.00478303	0
2165.05	0.00945679	-0.00474866	0
2175.05	0.0094186	-0.00473656	0
2185.05	0.00939951	-0.00470665	0
2195.05	0.00949497	-0.00467291	0
2205.05	0.0094186	-0.00467482	0
2215.05	0.00945679	-0.00464554	0
2225.05	0.00945679	-0.00461945	0
2235.05	0.00949497	-0.00459844	0
2245.05	0.00939951	-0.00457871	0
2255.05	0.00934224	-0.00454052	0
2265.05	0.00947588	-0.00452397	0
2275.05	0.00949497	-0.00450551	0
2285.05	0.0094377	-0.00448931	0
2295.05	0.00947588	-0.00446117	0
2305.05	0.00947588	-0.00444156	0
2315.05	0.00936133	-0.00443768	0
2325.05	0.00939951	-0.00441215	0
2335.05	0.00949497	-0.00437249	0
2345.05	0.00945679	-0.0043651	0
2355.05	0.0094186	-0.00433697	0
2365.05	0.00934224	-0.00430456	0
2375.05	0.00949497	-0.0042896	0
2385.05	0.00939951	-0.00427101	0
2395.05	0.00945679	-0.00425701	0
2405.05	0.00949497	-0.00423332	0
2415.05	0.0094377	-0.00421422	0
2425.05	0.0094186	-0.00419252	0
2435.05	0.0094186	-0.00417183	0
2445.05	0.00938042	-0.00414891	0
2455.05	0.00945679	-0.00413185	0
2465.05	0.00949497	-0.00410415	0
2475.05	0.00947588	-0.00408034	0
2485.05	0.00945679	-0.00406061	0
2495.05	0.00939951	-0.00405583	0
2505.05	0.00936133	-0.00401744	0
2515.05	0.00936133	-0.00399962	0
2525.05	0.00939951	-0.00399109	0
2535.05	0.00947588	-0.00396906	0
2545.05	0.0094377	-0.00394691	0
2551.82	0.00945679	-0.00391896	0
2551.82	0.00945679	-0.00393328	0