File: EXPERIMENTAL/Data/Battery-cycling/E-measurements/C-cell/2024-04-25_E-measurements_sample-Ionic-electrolyte-01_C-cell_Cu-Li-Cellgard2400-separator_25muL-ionic-electrolyte_outside-glovebox_sigma-0.02_added-OCV-0.1s_04_CP_C01.txt
time/s	Ewe/V	I/mA	error
1690.76	-0.426289	-0.193764	0
1690.78	-0.989672	-0.195961	0
1690.8	-1.11573	-0.195961	0
1690.82	-1.25103	-0.195965	0
1690.86	-1.37581	-0.195969	0
1690.91	-1.49585	-0.195961	0
1690.98	-1.60557	-0.195963	0
1691.06	-1.71204	-0.195966	0
1691.17	-1.81651	-0.195968	0
1691.29	-1.91935	-0.195968	0
1691.42	-2.02229	-0.195965	0
1691.56	-2.12358	-0.195963	0
1691.7	-2.22472	-0.195959	0
1691.85	-2.32692	-0.195965	0
1692.01	-2.42928	-0.19596	0
1692.16	-2.53108	-0.195965	0
1692.32	-2.63312	-0.195962	0
1692.48	-2.73541	-0.195965	0
1692.63	-2.83714	-0.195963	0
1692.79	-2.93793	-0.195961	0
1692.94	-3.03903	-0.195958	0
1693.1	-3.14144	-0.195958	0
1693.26	-3.24218	-0.195968	0
1693.42	-3.34254	-0.195965	0
1693.58	-3.44323	-0.195962	0
1693.75	-3.54477	-0.195965	0
1693.92	-3.64515	-0.195967	0
1694.11	-3.74664	-0.195965	0
1694.3	-3.84721	-0.195961	0
1694.49	-3.94587	-0.195969	0
1694.69	-4.04635	-0.195964	0
1694.9	-4.14618	-0.195965	0
1695.11	-4.24649	-0.195959	0
1695.33	-4.34758	-0.195963	0
1695.55	-4.44681	-0.19596	0
1695.77	-4.54746	-0.195965	0
1695.99	-4.64847	-0.195961	0
1696.22	-4.74774	-0.195947	0
1696.46	-4.84837	-0.1958	0
1696.69	-4.94745	-0.195748	0
1696.94	-5.04738	-0.195757	0
1697.19	-5.14728	-0.195766	0
1697.45	-5.2465	-0.195775	0
1697.72	-5.34613	-0.195775	0
1698	-5.44558	-0.195786	0
1698.3	-5.54525	-0.195786	0
1698.63	-5.64447	-0.195805	0
1698.97	-5.74317	-0.195815	0
1699.35	-5.84103	-0.195834	0
1699.77	-5.93916	-0.195849	0
1700.42	-6.03669	-0.195892	0
1701.97	-6.13272	-0.195924	0
1703.33	-6.22977	-0.195932	0
1705.03	-6.32698	-0.195937	0
1707.28	-6.42333	-0.195943	0
1710.2	-6.52006	-0.195947	0
1713.73	-6.61705	-0.195954	0
1718.32	-6.71338	-0.195956	0
1724.22	-6.81052	-0.195952	0
1732.11	-6.90469	-0.195956	0
1741.1	-7.00062	-0.19596	0
1748.66	-7.04938	-0.195954	0
1758.69	-7.14331	-0.195954	0
1769.54	-7.23138	-0.195962	0
1783.08	-7.3271	-0.195965	0
1796.27	-7.42305	-0.195965	0
1812.76	-7.50449	-0.195962	0
1837.33	-7.60046	-0.195966	0
1864.58	-7.61106	-0.195963	0
1888.28	-7.66936	-0.195965	0
1905.65	-7.76577	-0.195959	0
1914.83	-7.8148	-0.195968	0
1925.97	-7.87058	-0.195963	0
1928.39	-7.79086	-0.195961	0
1930.85	-7.84718	-0.195962	0
1937.34	-7.92715	-0.195963	0
1943.02	-7.96243	-0.195958	0
1946.16	-7.93746	-0.195969	0
1949.7	-8.00649	-0.195961	0
1958.2	-8.08148	-0.195956	0
1961.79	-8.08442	-0.195959	0
1966.06	-8.18058	-0.195957	0
1969.73	-8.24056	-0.195955	0
1974.79	-8.21815	-0.195965	0
1977.89	-8.25574	-0.195963	0
1979.74	-8.26844	-0.195963	0
1982.74	-8.35748	-0.195945	0
1990.76	-8.44182	-0.195957	0
2000.62	-8.49728	-0.195963	0
2004.44	-8.55211	-0.195954	0
2008.31	-8.62723	-0.195956	0
2012.81	-8.70843	-0.195952	0
2019.54	-8.79451	-0.195957	0
2026.65	-8.8599	-0.195958	0
2028.65	-8.8611	-0.19596	0
2031.81	-8.924	-0.195956	0
2034.86	-8.97923	-0.195956	0
2038.18	-9.04611	-0.195957	0
2041.06	-9.11856	-0.195953	0
2043.94	-9.10901	-0.195959	0
2049.81	-9.16297	-0.195958	0
2054.39	-9.2021	-0.195961	0
2057.1	-9.24584	-0.19596	0
2058.14	-9.20315	-0.19597	0
2060.51	-9.28358	-0.195954	0
2062.27	-9.2824	-0.195961	0
2064.78	-9.37192	-0.195951	0
2067.46	-9.41184	-0.19597	0
2071.93	-9.44486	-0.195959	0
2074.09	-9.46626	-0.19596	0
2078.39	-9.46829	-0.195963	0
2080.75	-9.55891	-0.195944	0
2081.86	-9.52799	-0.195961	0
2083.85	-9.50949	-0.195968	0
2086.65	-9.57199	-0.19596	0
2087.61	-9.47237	-0.195972	0
2087.74	-9.34217	-0.195967	0
2091.83	-9.30382	-0.195967	0
2095.25	-9.35787	-0.19597	0
2095.28	-9.15094	-0.195967	0
2096.45	-9.14277	-0.195968	0
2100.03	-9.08939	-0.195968	0
2104.23	-9.08423	-0.195967	0
2108.38	-9.10942	-0.195964	0
2111.81	-9.14716	-0.19596	0
2114.88	-9.13799	-0.195963	0
2116.37	-9.16111	-0.19597	0
2118.91	-9.19214	-0.195963	0
2121.62	-9.26795	-0.19596	0
2124.89	-9.28855	-0.195968	0
2129.6	-9.34643	-0.19596	0
2132.85	-9.43322	-0.195963	0
2136.05	-9.44626	-0.195964	0
2139.79	-9.49523	-0.195969	0
2142.5	-9.52293	-0.195965	0
2144.19	-9.43929	-0.19596	0
2149.59	-9.52222	-0.195963	0
2153.83	-9.58392	-0.195968	0
2157.95	-9.58547	-0.195965	0
2159.46	-9.65282	-0.195955	0
2162.21	-9.71527	-0.195954	0
2164.26	-9.71097	-0.195965	0
2167.83	-9.71389	-0.195971	0
2170.68	-9.72491	-0.195959	0
2171.78	-9.83207	-0.195881	0
2175.11	-9.78035	-0.195961	0
2176.59	-9.68295	-0.195963	0
2177.17	-9.5844	-0.195966	0
2178.04	-9.48627	-0.195972	0
2184.43	-9.41228	-0.195963	0
2190.52	-9.39261	-0.195967	0
2193.77	-9.46453	-0.195967	0
2201.57	-9.45561	-0.195968	0
2206.45	-9.47459	-0.195963	0
2208.82	-9.45966	-0.195965	0
2209.32	-9.36136	-0.195968	0
2210.91	-9.26354	-0.195959	0
2228.15	-9.32056	-0.195967	0
2233.36	-9.40107	-0.19596	0
2239.56	-9.39528	-0.195964	0
2243.5	-9.49177	-0.195965	0
2248.33	-9.47644	-0.19597	0
2253.18	-9.44689	-0.19597	0
2259.82	-9.41594	-0.195968	0
2267.47	-9.45809	-0.195966	0
2273.2	-9.51275	-0.195963	0
2277.38	-9.53331	-0.195962	0
2283.62	-9.60254	-0.195963	0
2288.6	-9.67044	-0.195967	0
2298.05	-9.73174	-0.195964	0
2306.19	-9.76878	-0.19597	0
2312.86	-9.82773	-0.19596	0
2322.67	-9.90229	-0.195963	0
2335.8	-9.84965	-0.195965	0
2343.24	-9.75716	-0.195967	0
2356.17	-9.75855	-0.195965	0
2367.89	-9.66857	-0.19597	0
2391.98	-9.59139	-0.195967	0
2430.77	-9.56817	-0.195967	0
2449.91	-9.50147	-0.195969	0
2451.82	-9.5012	-0.195977	0
2457.66	-9.4043	-0.195969	0
2469.4	-9.30483	-0.195968	0
2495.08	-9.20919	-0.195971	0
2508.37	-9.16902	-0.195968	0
2515.29	-9.12478	-0.195965	0
2527.47	-9.0447	-0.19597	0
2532.13	-9.05707	-0.195963	0
2544.42	-8.98977	-0.195968	0
2555.12	-9.08448	-0.19597	0
2567.22	-9.01524	-0.195962	0
2587.1	-9.10237	-0.195964	0
2603.97	-9.16997	-0.195965	0
2619.63	-9.26232	-0.195965	0
2636.23	-9.3354	-0.195967	0
2649.48	-9.42883	-0.195964	0
2651.82	-9.51573	-0.195957	0
2656.76	-9.42104	-0.195966	0
2676.38	-9.48215	-0.195966	0
2696.02	-9.55328	-0.195958	0
2716.37	-9.57907	-0.195965	0
2737.39	-9.5184	-0.195966	0
2751.01	-9.48488	-0.195965	0
2759.94	-9.56481	-0.195964	0
2764.95	-9.49937	-0.195968	0
2773.59	-9.40494	-0.195959	0
2778.12	-9.31676	-0.195965	0
2794.19	-9.31398	-0.195966	0
2805.05	-9.26312	-0.195965	0
2811.4	-9.19506	-0.195965	0
2822.05	-9.13223	-0.195965	0
2830.18	-9.13148	-0.19596	0
2840.84	-9.06573	-0.195968	0
2848.57	-9.12165	-0.195959	0
2855.84	-9.07671	-0.19597	0
2864.47	-8.98049	-0.195965	0
2875.76	-8.91929	-0.195965	0
2885.27	-8.88689	-0.195967	0
2907.85	-8.91242	-0.195965	0
2915.03	-8.9905	-0.195965	0
2918.5	-9.00737	-0.195965	0
2924.77	-9.02868	-0.195962	0
2932.17	-8.93443	-0.195972	0
2941.76	-8.84609	-0.195963	0
2952.89	-8.83313	-0.195968	0
2958.05	-8.88366	-0.195965	0
2963.78	-8.86173	-0.195968	0
2967.52	-8.88511	-0.19597	0
2971.01	-8.96513	-0.195963	0
2975.26	-9.05136	-0.195962	0
2981.71	-9.10481	-0.195967	0
2982.47	-9.01696	-0.195962	0
2987.6	-8.92689	-0.195965	0
2990.84	-8.82985	-0.195961	0
2993.21	-8.73487	-0.195968	0
3000.59	-8.6981	-0.195971	0
3011.33	-8.72836	-0.195968	0
3017.72	-8.70421	-0.195968	0
3027.96	-8.7968	-0.195966	0
3030.41	-8.72635	-0.195963	0
3038.5	-8.77548	-0.195968	0
3045.42	-8.78659	-0.195967	0
3050.65	-8.7486	-0.195971	0
3057.72	-8.73473	-0.195965	0
3063.13	-8.74315	-0.19596	0
3070.57	-8.74136	-0.195965	0
3075.86	-8.74149	-0.195958	0
3081.1	-8.70957	-0.195965	0
3090.12	-8.69613	-0.195962	0
3097.45	-8.74325	-0.195967	0
3102.36	-8.74251	-0.195966	0
3106.78	-8.75791	-0.195969	0
3113.98	-8.82725	-0.195967	0
3119.05	-8.83807	-0.19596	0
3126.52	-8.85612	-0.195969	0
3131.45	-8.90654	-0.19596	0
3137.47	-8.90759	-0.195969	0
3144.82	-8.89176	-0.195965	0
3149.88	-8.86005	-0.195969	0
3160.42	-8.85111	-0.195965	0
3168.94	-8.88326	-0.195967	0
3177.25	-8.87219	-0.195963	0
3179.66	-8.83193	-0.195965	0
3192.28	-8.81234	-0.19596	0
3200.25	-8.81532	-0.195964	0
3208.39	-8.82087	-0.195965	0
3217.98	-8.80969	-0.195965	0
3223.97	-8.77364	-0.195963	0
3233.56	-8.8203	-0.195962	0
3241.59	-8.81104	-0.19597	0
3245.5	-8.72087	-0.195965	0
3256.08	-8.69046	-0.195963	0
3265.1	-8.76037	-0.195967	0
3274.69	-8.77601	-0.195968	0
3281.39	-8.82832	-0.195965	0
3287.48	-8.78134	-0.195962	0
3303.22	-8.78437	-0.195961	0
3307.91	-8.82131	-0.195965	0
3315.12	-8.83668	-0.195959	0
3322.5	-8.81818	-0.195965	0
3325.56	-8.76822	-0.195959	0
3337.54	-8.8316	-0.195962	0
3343.25	-8.80157	-0.195962	0
3354.03	-8.7813	-0.195963	0
3360.18	-8.71377	-0.195964	0
3371.47	-8.70178	-0.195968	0
3378.6	-8.73628	-0.195968	0
3386.96	-8.69195	-0.195967	0
3404.61	-8.70952	-0.195967	0
3417.2	-8.80369	-0.195962	0
3429.98	-8.89697	-0.195961	0
3438.26	-8.83548	-0.195967	0
3442.65	-8.85501	-0.195967	0
3446.48	-8.777	-0.195965	0
3459.21	-8.73086	-0.195966	0
3460.02	-8.63262	-0.19596	0
3473.06	-8.60003	-0.195968	0
3485.05	-8.69619	-0.195966	0
3488.65	-8.79344	-0.195965	0
3490.76	-8.81557	-0.195965	0