File: EXPERIMENTAL/Data/Battery-cycling/JP-measurements/C-cell/2024-04-19_JP-measurements_sample-A8-01_C-cell_Cu-Li-Cellgard2400-separator_25muL-LiFSI-in-DME_outside-glovebox_sigma-0.02_02_MB_C10.txt
time/s	Ewe/V	I/mA	error
60.053	2.81461	-0.0250307	0
60.1736	0.00906931	-17.5586	0
60.1744	0.00912656	-17.396	0
60.1752	0.00920289	-17.2449	0
60.176	0.00916473	-17.0937	0
60.1768	0.00924106	-16.9349	0
60.1776	0.00924106	-16.794	0
60.1784	0.00926014	-16.6371	0
60.1792	0.00918381	-16.4955	0
60.18	0.00922198	-16.3584	0
60.1808	0.00918381	-16.2239	0
60.1816	0.00924106	-16.0829	0
60.1824	0.00916473	-15.9477	0
60.1832	0.00926014	-15.8151	0
60.184	0.00927923	-15.6792	0
60.1848	0.00929831	-15.5523	0
60.1856	0.00926014	-15.4369	0
60.1864	0.00918381	-15.3081	0
60.1872	0.00927923	-15.1799	0
60.188	0.0093174	-15.0651	0
60.1888	0.00924106	-14.9458	0
60.1896	0.00920289	-14.8202	0
60.1904	0.0093174	-14.706	0
60.1912	0.00933648	-14.5913	0
60.192	0.00920289	-14.4835	0
60.1928	0.00927923	-14.3649	0
60.1936	0.00918381	-14.2545	0
60.1948	0.00918381	-14.0996	0
60.1956	0.00926014	-13.9918	0
60.1966	0.00918381	-13.8668	0
60.1974	0.00927923	-13.7584	0
60.1982	0.00922198	-13.6563	0
60.1992	0.00922198	-13.5352	0
60.2002	0.00927923	-13.4076	0
60.2014	0.00918381	-13.2654	0
60.2026	0.00922198	-13.1225	0
60.2036	0.00922198	-13.0014	0
60.2046	0.00924106	-12.8917	0
60.2056	0.00929831	-12.775	0
60.2066	0.00933648	-12.6621	0
60.2078	0.00918381	-12.5377	0
60.209	0.00929831	-12.4115	0
60.2102	0.00933648	-12.282	0
60.2114	0.00920289	-12.1577	0
60.2126	0.00926014	-12.0422	0
60.2138	0.00910748	-11.9172	0
60.215	0.00929831	-11.8024	0
60.2162	0.00924106	-11.68	0
60.2174	0.00920289	-11.5646	0
60.2186	0.00933648	-11.4568	0
60.2198	0.00926014	-11.3433	0
60.221	0.00926014	-11.231	0
60.2224	0.00933648	-11.1067	0
60.2238	0.00920289	-10.997	0
60.225	0.00918381	-10.8892	0
60.2266	0.0093174	-10.7508	0
60.228	0.00922198	-10.6398	0
60.2294	0.00920289	-10.5289	0
60.2308	0.00939373	-10.4166	0
60.2322	0.00918381	-10.3018	0
60.2338	0.00914564	-10.1839	0
60.2352	0.00920289	-10.0812	0
60.2368	0.00922198	-9.96703	0
60.2384	0.00927923	-9.84777	0
60.2402	0.00918381	-9.72469	0
60.2418	0.00927923	-9.6067	0
60.2436	0.00927923	-9.48235	0
60.2454	0.00922198	-9.37074	0
60.2474	0.00922198	-9.24702	0
60.249	0.00926014	-9.14179	0
60.2508	0.00922198	-9.0321	0
60.2526	0.00935556	-8.91986	0
60.2548	0.00918381	-8.80379	0
60.257	0.00926014	-8.67688	0
60.259	0.00922198	-8.56209	0
60.261	0.00924106	-8.44921	0
60.2632	0.00926014	-8.33825	0
60.2654	0.00918381	-8.22345	0
60.2676	0.00914564	-8.11185	0
60.27	0.00926014	-7.99259	0
60.2726	0.00927923	-7.86377	0
60.2752	0.00924106	-7.74579	0
60.278	0.00935556	-7.62462	0
60.2804	0.00935556	-7.51365	0
60.283	0.00920289	-7.41098	0
60.2858	0.00922198	-7.29363	0
60.2886	0.00929831	-7.18586	0
60.2912	0.00926014	-7.07808	0
60.2942	0.00924106	-6.96456	0
60.2972	0.00922198	-6.85551	0
60.3002	0.00929831	-6.74518	0
60.3034	0.00918381	-6.63358	0
60.3068	0.00924106	-6.52708	0
60.3104	0.00933648	-6.41037	0
60.3138	0.00926014	-6.3045	0
60.3174	0.00924106	-6.198	0
60.3214	0.00908839	-6.08066	0
60.3252	0.00929831	-5.97097	0
60.3292	0.00924106	-5.86383	0
60.3334	0.00916473	-5.75159	0
60.338	0.00920289	-5.63807	0
60.3422	0.00918381	-5.53476	0
60.347	0.00929831	-5.42379	0
60.3518	0.00927923	-5.3192	0
60.3568	0.00922198	-5.20887	0
60.3622	0.00922198	-5.09472	0
60.3678	0.00920289	-4.98949	0
60.3734	0.00922198	-4.88427	0
60.3796	0.00924106	-4.76947	0
60.3864	0.00924106	-4.65914	0
60.3926	0.00926014	-4.55392	0
60.3992	0.00920289	-4.45252	0
60.4062	0.00918381	-4.34793	0
60.4138	0.00926014	-4.24525	0
60.4208	0.00920289	-4.14003	0
60.429	0.00929831	-4.03608	0
60.4382	0.00929831	-3.9283	0
60.4474	0.00920289	-3.82371	0
60.458	0.00926014	-3.71338	0
60.468	0.00924106	-3.60816	0
60.4734	0.00920289	-3.61317	0
60.5102	0.00924106	-3.28645	0
60.524	0.00914564	-3.18548	0
60.5388	0.00912656	-3.08502	0
60.5554	0.00922198	-2.98087	0
60.573	0.00918381	-2.87926	0
60.5918	0.00927923	-2.77753	0
60.6128	0.00920289	-2.67458	0
60.6354	0.00920289	-2.57349	0
60.6598	0.00927923	-2.47207	0
60.6866	0.00927923	-2.37123	0
60.7158	0.00922198	-2.27096	0
60.748	0.00935556	-2.16987	0
60.7836	0.00922198	-2.06928	0
60.8232	0.00920289	-1.96882	0
60.8674	0.00924106	-1.86772	0
60.9174	0.00924106	-1.76701	0
60.9748	0.00927923	-1.66668	0
61.0404	0.00927923	-1.56628	0
61.1166	0.00924106	-1.46582	0
61.2066	0.00920289	-1.36491	0
61.3134	0.00918381	-1.26414	0
61.445	0.00916473	-1.16374	0
61.6068	0.00918381	-1.06271	0
61.8116	0.0093174	-0.961992	0
62.0772	0.00924106	-0.861469	0
62.4362	0.00918381	-0.760754	0
62.9466	0.00922198	-0.659912	0
63.722	0.00918381	-0.559198	0
65.0072	0.00916473	-0.458993	0
67.5504	0.00929831	-0.358678	0
73.005	0.00929831	-0.258658	0
88.5512	0.0093174	-0.160669	0
108.551	0.00933648	-0.111601	0
128.551	0.00927923	-0.0847622	0
148.551	0.00918381	-0.0693975	0
168.551	0.00922198	-0.0588466	0
188.551	0.00914564	-0.0511165	0
208.551	0.00924106	-0.045112	0
228.551	0.00926014	-0.0407779	0
248.551	0.0093174	-0.0371741	0
268.551	0.00924106	-0.0337703	0
288.551	0.0093174	-0.0312201	0
308.551	0.00922198	-0.0288686	0
328.551	0.00918381	-0.0269002	0
348.551	0.0093174	-0.0250866	0
368.551	0.00920289	-0.0237886	0
388.551	0.00927923	-0.0221595	0
408.551	0.00918381	-0.0209538	0
428.551	0.00920289	-0.0197933	0
448.551	0.00924106	-0.0187009	0
468.551	0.00926014	-0.0178269	0
488.551	0.00922198	-0.0168771	0
508.551	0.00927923	-0.0161571	0
528.551	0.00926014	-0.015392	0
548.551	0.00926014	-0.014777	0
568.551	0.00922198	-0.0140233	0
588.551	0.00918381	-0.0135567	0
608.551	0.00933648	-0.0130366	0
628.551	0.00916473	-0.0124655	0
648.551	0.00926014	-0.0120473	0
668.551	0.00914564	-0.0115686	0
688.551	0.00922198	-0.0112083	0
708.551	0.00918381	-0.0108792	0
728.551	0.00920289	-0.0103871	0
748.551	0.00922198	-0.0101197	0
768.551	0.00922198	-0.00971166	0
788.551	0.00927923	-0.00943856	0
808.551	0.00920289	-0.00902096	0
828.551	0.00920289	-0.00875486	0
848.551	0.00920289	-0.00846203	0
868.551	0.00926014	-0.00828633	0
888.551	0.00920289	-0.00801451	0
908.551	0.00922198	-0.00775223	0
928.551	0.00927923	-0.00754343	0
948.551	0.00924106	-0.00725888	0
968.551	0.00918381	-0.00712774	0
988.551	0.00924106	-0.00700806	0
1008.55	0.00927923	-0.0067999	0
1028.55	0.00912656	-0.00663056	0
1048.55	0.00927923	-0.00641285	0
1068.55	0.00914564	-0.00629317	0
1088.55	0.00920289	-0.00610092	0
1108.55	0.00920289	-0.00587557	0
1128.55	0.00929831	-0.00577881	0
1148.55	0.00924106	-0.0056413	0
1168.55	0.00933648	-0.00541213	0
1188.55	0.00929831	-0.00541659	0
1208.55	0.00922198	-0.00520269	0
1228.55	0.00922198	-0.0051594	0
1248.55	0.00924106	-0.00503018	0
1268.55	0.00922198	-0.00494933	0
1288.55	0.00920289	-0.00486084	0
1308.55	0.00926014	-0.00497798	0
1328.55	0.00920289	-0.00468005	0
1348.55	0.00927923	-0.00454891	0
1368.55	0.00916473	-0.00451371	0
1388.55	0.00933648	-0.00441482	0
1408.55	0.00916473	-0.00433657	0
1428.55	0.00922198	-0.00424659	0
1448.55	0.00926014	-0.00415764	0
1468.55	0.00935556	-0.00408569	0
1488.55	0.00924106	-0.00401412	0
1504.55	0.00918381	-0.00391026	0
1504.55	0.00922198	-0.00392058	0