File: EXPERIMENTAL/Data/Battery-cycling/JP-measurements/C-cell/2024-04-23_JP-measurements_sample-A8-02_C-cell_Cu-Li-Cellgard2400-separator_25muL-LiFSI-in-DME_outside-glovebox_sigma-0.02_added-OCV-0.1s_02_MB_C11.txt
time/s	Ewe/V	I/mA	error
60.053	2.92592	-0.025006	0
60.1736	0.00904193	-16.0142	0
60.1744	0.0090992	-15.8603	0
60.1752	0.00898467	-15.7267	0
60.176	0.00906102	-15.5873	0
60.1768	0.00911828	-15.4461	0
60.1776	0.00908011	-15.3119	0
60.1784	0.00906102	-15.1777	0
60.1792	0.00906102	-15.0473	0
60.18	0.00902284	-14.9105	0
60.1808	0.00906102	-14.7852	0
60.1816	0.00894649	-14.663	0
60.1824	0.00898467	-14.5447	0
60.1832	0.00888923	-14.4092	0
60.184	0.00908011	-14.282	0
60.185	0.00900376	-14.1363	0
60.1858	0.00894649	-14.0218	0
60.1866	0.00898467	-13.9041	0
60.1874	0.00898467	-13.7896	0
60.1882	0.00900376	-13.6782	0
60.189	0.00906102	-13.5618	0
60.1898	0.00900376	-13.4499	0
60.1908	0.00896558	-13.3182	0
60.1916	0.00894649	-13.2075	0
60.1924	0.00904193	-13.1038	0
60.1932	0.00894649	-12.9912	0
60.1942	0.00902284	-12.8646	0
60.1954	0.00902284	-12.7132	0
60.1964	0.0090992	-12.5911	0
60.1974	0.00908011	-12.4702	0
60.1984	0.0090992	-12.3423	0
60.1996	0.00902284	-12.1935	0
60.2008	0.00900376	-12.0548	0
60.202	0.00898467	-11.9263	0
60.203	0.00902284	-11.8137	0
60.204	0.00908011	-11.6973	0
60.2052	0.00887014	-11.5643	0
60.2064	0.00892741	-11.4377	0
60.2076	0.00908011	-11.3086	0
60.2088	0.00917555	-11.1877	0
60.21	0.00902284	-11.0668	0
60.2112	0.00902284	-10.9422	0
60.2124	0.00911828	-10.8257	0
60.2136	0.00915646	-10.7049	0
60.2148	0.00900376	-10.5891	0
60.2162	0.00898467	-10.465	0
60.2174	0.00898467	-10.3499	0
60.2188	0.00892741	-10.2271	0
60.2202	0.00904193	-10.0999	0
60.2216	0.00898467	-9.97774	0
60.2228	0.00906102	-9.87278	0
60.2242	0.00902284	-9.76081	0
60.2256	0.00894649	-9.64567	0
60.227	0.00906102	-9.52735	0
60.2286	0.00898467	-9.4033	0
60.2302	0.00896558	-9.27861	0
60.2318	0.00896558	-9.15456	0
60.2334	0.00915646	-9.04769	0
60.235	0.00902284	-8.91982	0
60.2366	0.00892741	-8.80404	0
60.2382	0.00904193	-8.69589	0
60.2398	0.00900376	-8.58329	0
60.2416	0.00900376	-8.46561	0
60.2434	0.00908011	-8.34665	0
60.2452	0.00888923	-8.23405	0
60.247	0.00900376	-8.12526	0
60.2488	0.00904193	-8.0133	0
60.2506	0.00894649	-7.9007	0
60.2528	0.00908011	-7.77792	0
60.2548	0.00904193	-7.66214	0
60.2568	0.00908011	-7.55209	0
60.2588	0.00902284	-7.4414	0
60.2612	0.00900376	-7.3218	0
60.2632	0.00904193	-7.2162	0
60.2658	0.00898467	-7.0877	0
60.2682	0.00902284	-6.97255	0
60.2706	0.00904193	-6.85296	0
60.2732	0.00906102	-6.73463	0
60.2758	0.00900376	-6.61885	0
60.2784	0.00898467	-6.51071	0
60.281	0.00908011	-6.39938	0
60.284	0.0090992	-6.2836	0
60.2866	0.00896558	-6.17355	0
60.2896	0.00904193	-6.06985	0
60.2924	0.00902284	-5.96298	0
60.2954	0.0090992	-5.8561	0
60.2984	0.00906102	-5.7505	0
60.3018	0.00906102	-5.63981	0
60.305	0.00900376	-5.53421	0
60.3084	0.00900376	-5.42288	0
60.3122	0.00915646	-5.31347	0
60.316	0.00894649	-5.20468	0
60.3196	0.00898467	-5.09972	0
60.324	0.00896558	-4.98585	0
60.3284	0.00908011	-4.87579	0
60.3332	0.00908011	-4.75429	0
60.3378	0.00896558	-4.65123	0
60.3422	0.00900376	-4.53927	0
60.3474	0.0090992	-4.43494	0
60.3526	0.0090992	-4.32743	0
60.3586	0.0090992	-4.21737	0
60.3642	0.00898467	-4.11368	0
60.37	0.00896558	-4.00871	0
60.4074	0.00900376	-3.49588	0
60.4158	0.00900376	-3.39239	0
60.4248	0.00898467	-3.28865	0
60.4342	0.00921372	-3.18687	0
60.4442	0.00898467	-3.08472	0
60.4548	0.00904193	-2.9839	0
60.4662	0.00900376	-2.88257	0
60.4786	0.00906102	-2.78118	0
60.492	0.00904193	-2.67883	0
60.5062	0.00908011	-2.57789	0
60.5218	0.00908011	-2.47592	0
60.5386	0.00902284	-2.37485	0
60.5568	0.00913737	-2.27422	0
60.577	0.00904193	-2.17238	0
60.5988	0.00896558	-2.07163	0
60.6232	0.00902284	-1.97075	0
60.6502	0.00898467	-1.87005	0
60.6804	0.00900376	-1.76892	0
60.7142	0.00900376	-1.66803	0
60.753	0.00908011	-1.56677	0
60.7978	0.00906102	-1.46595	0
60.8504	0.00908011	-1.36539	0
60.912	0.00900376	-1.26469	0
60.9872	0.00904193	-1.16362	0
61.0806	0.00890832	-1.06153	0
61.1982	0.00898467	-0.961027	0
61.3496	0.00904193	-0.860589	0
61.5516	0.00900376	-0.760151	0
61.833	0.00906102	-0.659714	0
62.254	0.00898467	-0.55934	0
62.9256	0.00896558	-0.458838	0
64.2368	0.00908011	-0.358654	0
65.0534	0.00908011	-0.320594	0
69.7416	0.00904193	-0.220542	0
85.8482	0.00904193	-0.131759	0
105.848	0.00904193	-0.0958869	0
125.848	0.00906102	-0.076462	0
145.848	0.00902284	-0.0628461	0
165.848	0.00900376	-0.0538368	0
185.848	0.00913737	-0.0469779	0
205.848	0.00908011	-0.0422324	0
225.848	0.00900376	-0.0380703	0
245.848	0.00900376	-0.0347364	0
265.848	0.00915646	-0.0318644	0
285.848	0.00900376	-0.0294535	0
305.848	0.00894649	-0.0274574	0
325.848	0.00902284	-0.0255663	0
345.848	0.0090992	-0.0240657	0
365.848	0.00902284	-0.0225333	0
385.848	0.00902284	-0.0213412	0
405.848	0.00894649	-0.020111	0
425.848	0.00917555	-0.0189933	0
445.848	0.00904193	-0.0180945	0
465.848	0.0090992	-0.0171588	0
485.848	0.00898467	-0.0163465	0
505.848	0.00906102	-0.0157263	0
525.848	0.00908011	-0.014926	0
545.848	0.00898467	-0.014246	0
565.848	0.00908011	-0.0136214	0
585.848	0.00908011	-0.0131029	0
605.848	0.00904193	-0.0125209	0
625.848	0.00906102	-0.0120743	0
645.848	0.00898467	-0.0117308	0
665.848	0.00904193	-0.0112442	0
685.848	0.0090992	-0.0107061	0
705.848	0.00894649	-0.0104185	0
725.848	0.00898467	-0.00998154	0
745.848	0.0090992	-0.00957315	0
765.848	0.00902284	-0.00933525	0
785.848	0.00908011	-0.00905727	0
805.848	0.00900376	-0.00876911	0
825.848	0.00908011	-0.00843197	0
845.848	0.00908011	-0.00810882	0
865.848	0.00898467	-0.00789763	0
885.848	0.00904193	-0.007661	0
905.848	0.00906102	-0.00741483	0
925.848	0.00906102	-0.00716165	0
945.848	0.00898467	-0.00705733	0
965.848	0.00906102	-0.00674627	0
985.848	0.00913737	-0.00659424	0
1005.85	0.00902284	-0.0063716	0
1025.85	0.00894649	-0.00624438	0
1045.85	0.0090992	-0.00612288	0
1065.85	0.00896558	-0.00600711	0
1085.85	0.00908011	-0.00574376	0
1105.85	0.00906102	-0.00559618	0
1125.85	0.00902284	-0.00540917	0
1145.85	0.00906102	-0.00540026	0
1165.85	0.00902284	-0.0052794	0
1185.85	0.00902284	-0.00506948	0
1205.85	0.00896558	-0.0050046	0
1225.85	0.00904193	-0.00480486	0
1245.85	0.00902284	-0.00476924	0
1265.85	0.00902284	-0.00469163	0
1285.85	0.0090992	-0.00449762	0
1305.85	0.00902284	-0.00452203	0
1325.85	0.00896558	-0.00440801	0
1345.85	0.00911828	-0.004312	0
1365.85	0.00908011	-0.00422229	0
1385.85	0.00904193	-0.00414581	0
1405.85	0.00898467	-0.00405253	0
1425.85	0.00904193	-0.00400291	0
1430.85	0.00911828	-0.00392668	0