File: EXPERIMENTAL/Data/Battery-cycling/JP-measurements/C-cell/2024-04-26_JP-measurements_sample-A9-05_C-cell_Cu-Li-Cellgard2400-separator_25muL-LiFSI-in-DME_outside-glovebox_sigma-0.02_added-OCV-0.1s_02_MB_C01.txt
time/s	Ewe/V	I/mA	error
60.053	2.74528	-0.0250252	0
60.1732	0.00939951	-16.1451	0
60.1736	0.00949497	-16.0859	0
60.174	0.00939951	-16.0286	0
60.1744	0.00939951	-15.9623	0
60.1748	0.00939951	-15.9088	0
60.1752	0.00945679	-15.8471	0
60.1756	0.00947588	-15.7802	0
60.176	0.00945679	-15.7299	0
60.1764	0.0094377	-15.6751	0
60.1768	0.00949497	-15.6133	0
60.1772	0.00947588	-15.5554	0
60.1776	0.00947588	-15.4987	0
60.178	0.00939951	-15.4484	0
60.1784	0.00947588	-15.3911	0
60.1788	0.00949497	-15.3331	0
60.1792	0.00945679	-15.2828	0
60.1796	0.00947588	-15.2268	0
60.18	0.00938042	-15.1739	0
60.1806	0.0094186	-15.1007	0
60.181	0.00949497	-15.0421	0
60.1814	0.00953315	-14.9911	0
60.1818	0.00945679	-14.9402	0
60.1822	0.0094377	-14.8873	0
60.1828	0.00934224	-14.809	0
60.1834	0.00947588	-14.7326	0
60.184	0.00949497	-14.6555	0
60.1846	0.00939951	-14.5836	0
60.1852	0.00939951	-14.5129	0
60.1856	0.0094186	-14.4619	0
60.1862	0.00947588	-14.3925	0
60.1868	0.00938042	-14.3231	0
60.1874	0.0094186	-14.2537	0
60.188	0.00939951	-14.1804	0
60.1886	0.0094377	-14.1104	0
60.1892	0.00947588	-14.0384	0
60.1898	0.00949497	-13.9786	0
60.1904	0.0094186	-13.9079	0
60.191	0.00939951	-13.8391	0
60.1916	0.0094377	-13.7799	0
60.192	0.00945679	-13.7295	0
60.1926	0.0094377	-13.6665	0
60.1932	0.00947588	-13.6105	0
60.1938	0.00947588	-13.5417	0
60.1944	0.00945679	-13.4767	0
60.195	0.0094186	-13.4232	0
60.1956	0.00949497	-13.3678	0
60.196	0.00939951	-13.3143	0
60.1966	0.00939951	-13.2583	0
60.1972	0.0094377	-13.2016	0
60.1978	0.00951406	-13.1443	0
60.1984	0.00939951	-13.0844	0
60.199	0.0094186	-13.0175	0
60.1996	0.0094186	-12.9615	0
60.2002	0.00930406	-12.9042	0
60.2008	0.0094377	-12.8539	0
60.2014	0.00947588	-12.7934	0
60.202	0.00947588	-12.7367	0
60.2026	0.00949497	-12.6832	0
60.2032	0.00938042	-12.6303	0
60.2038	0.00949497	-12.5775	0
60.2044	0.00945679	-12.5259	0
60.205	0.00949497	-12.4673	0
60.2056	0.00949497	-12.4145	0
60.2064	0.00955224	-12.3501	0
60.207	0.00936133	-12.2954	0
60.2076	0.0094186	-12.2451	0
60.2084	0.00945679	-12.1775	0
60.2092	0.00938042	-12.117	0
60.2098	0.00945679	-12.0616	0
60.2106	0.0094377	-11.9922	0
60.2114	0.00949497	-11.9304	0
60.2122	0.00951406	-11.8668	0
60.213	0.0094377	-11.8031	0
60.2138	0.00951406	-11.7445	0
60.2146	0.00947588	-11.677	0
60.2154	0.00938042	-11.6267	0
60.216	0.00939951	-11.5655	0
60.2168	0.00939951	-11.5108	0
60.2176	0.0094377	-11.4534	0
60.2184	0.00947588	-11.4031	0
60.2192	0.00947588	-11.3426	0
60.2198	0.0094377	-11.2879	0
60.2206	0.00949497	-11.2337	0
60.2214	0.00936133	-11.1764	0
60.2222	0.00939951	-11.1229	0
60.2232	0.00934224	-11.0522	0
60.224	0.00947588	-10.9987	0
60.225	0.0094186	-10.9312	0
60.226	0.00938042	-10.8644	0
60.2268	0.00945679	-10.8096	0
60.2278	0.00947588	-10.7434	0
60.2286	0.0094377	-10.693	0
60.2294	0.0094186	-10.6421	0
60.2304	0.0094377	-10.5886	0
60.2312	0.00947588	-10.5383	0
60.232	0.0094186	-10.4842	0
60.233	0.00949497	-10.4224	0
60.234	0.0094186	-10.36	0
60.235	0.00955224	-10.2988	0
60.236	0.00951406	-10.2396	0
60.2368	0.00947588	-10.1887	0
60.238	0.00949497	-10.1288	0
60.2388	0.00945679	-10.0753	0
60.24	0.00934224	-10.0091	0
60.2412	0.00945679	-9.94985	0
60.242	0.00951406	-9.89699	0
60.2432	0.0094377	-9.84286	0
60.244	0.0094377	-9.79191	0
60.245	0.00949497	-9.73841	0
60.2462	0.00945679	-9.67664	0
60.2472	0.00951406	-9.62314	0
60.2482	0.00949497	-9.57156	0
60.2494	0.00936133	-9.51297	0
60.2506	0.00947588	-9.44865	0
60.2518	0.00953315	-9.39197	0
60.2528	0.00951406	-9.33847	0
60.254	0.00947588	-9.28689	0
60.2552	0.00951406	-9.22766	0
60.2564	0.0094186	-9.16971	0
60.2576	0.00949497	-9.11621	0
60.2588	0.00949497	-9.05889	0
60.26	0.00960951	-9.00285	0
60.2612	0.00938042	-8.94681	0
60.2626	0.0094186	-8.89331	0
60.2638	0.0094377	-8.83918	0
60.2648	0.00951406	-8.78569	0
60.2662	0.0094377	-8.73092	0
60.2674	0.00947588	-8.67678	0
60.2688	0.00945679	-8.6252	0
60.27	0.0094377	-8.57298	0
60.2714	0.00936133	-8.51503	0
60.273	0.00947588	-8.44943	0
60.2744	0.00939951	-8.39402	0
60.276	0.00951406	-8.33161	0
60.2774	0.00945679	-8.27621	0
60.279	0.00939951	-8.22462	0
60.2804	0.00947588	-8.16731	0
60.2818	0.00938042	-8.11445	0
60.2834	0.00945679	-8.06032	0
60.285	0.00953315	-8.00236	0
60.2866	0.0094186	-7.94504	0
60.288	0.0094186	-7.89155	0
60.2898	0.00945679	-7.83551	0
60.2912	0.0096477	-7.7852	0
60.2928	0.00947588	-7.73488	0
60.2944	0.0094186	-7.67948	0
60.296	0.00947588	-7.62917	0
60.2976	0.0094377	-7.57822	0
60.2992	0.00939951	-7.52664	0
60.301	0.00936133	-7.47378	0
60.3028	0.00947588	-7.42028	0
60.3044	0.00951406	-7.36488	0
60.3062	0.00939951	-7.31329	0
60.3082	0.0094377	-7.25725	0
60.3102	0.00959042	-7.19802	0
60.312	0.00947588	-7.1407	0
60.3142	0.00949497	-7.08976	0
60.3162	0.0096477	-7.03308	0
60.3182	0.00945679	-6.97512	0
60.3204	0.00936133	-6.92099	0
60.3224	0.00959042	-6.86559	0
60.3244	0.00945679	-6.81273	0
60.3268	0.00945679	-6.75414	0
60.329	0.00938042	-6.69809	0
60.3312	0.00945679	-6.64651	0
60.3334	0.00951406	-6.59301	0
60.3358	0.00939951	-6.5427	0
60.3376	0.00951406	-6.48984	0
60.34	0.00960951	-6.43699	0
60.3424	0.00939951	-6.38031	0
60.3448	0.00957133	-6.32554	0
60.3476	0.0094186	-6.27013	0
60.3502	0.00951406	-6.21218	0
60.3528	0.00939951	-6.15805	0
60.3554	0.00949497	-6.10391	0
60.358	0.00939951	-6.04787	0
60.361	0.0094377	-5.9931	0
60.3636	0.00951406	-5.94279	0
60.3664	0.0094377	-5.88548	0
60.3694	0.00938042	-5.8288	0
60.3724	0.00949497	-5.77785	0
60.3754	0.00938042	-5.72117	0
60.3784	0.00947588	-5.66895	0
60.3812	0.00955224	-5.61609	0
60.3846	0.00945679	-5.5645	0
60.3874	0.00939951	-5.51292	0
60.3908	0.00953315	-5.45497	0
60.3944	0.00953315	-5.39829	0
60.3978	0.00959042	-5.34734	0
60.4012	0.00938042	-5.29639	0
60.4042	0.0094377	-5.24608	0
60.4082	0.00947588	-5.18813	0
60.4122	0.00949497	-5.13017	0
60.4162	0.00945679	-5.07604	0
60.4202	0.00947588	-5.02127	0
60.4238	0.00947588	-4.97032	0
60.4278	0.0094186	-4.91938	0
60.4316	0.00939951	-4.86843	0
60.436	0.00949497	-4.81302	0
60.4404	0.00947588	-4.75889	0
60.4446	0.00953315	-4.70412	0
60.4496	0.00945679	-4.64999	0
60.4542	0.00951406	-4.59904	0
60.4588	0.00938042	-4.54045	0
60.4642	0.0094377	-4.48186	0
60.4694	0.00936133	-4.42964	0
60.5036	0.00934224	-4.1129	0
60.5096	0.0094377	-4.06032	0
60.5156	0.0094377	-4.00862	0
60.522	0.00947588	-3.95617	0
60.5284	0.0094186	-3.90511	0
60.535	0.00949497	-3.8538	0
60.5416	0.00951406	-3.80312	0
60.5486	0.00939951	-3.75149	0
60.5558	0.0094377	-3.69948	0
60.5632	0.0094377	-3.64944	0
60.5708	0.00939951	-3.59781	0
60.5786	0.00947588	-3.54663	0
60.5868	0.00945679	-3.49576	0
60.595	0.00936133	-3.44503	0
60.6036	0.00949497	-3.39422	0
60.6124	0.0094186	-3.34406	0
60.6216	0.00947588	-3.29217	0
60.6312	0.0094186	-3.24214	0
60.641	0.00936133	-3.19172	0
60.651	0.0094377	-3.14155	0
60.6614	0.0094377	-3.09088	0
60.6724	0.00939951	-3.0402	0
60.6838	0.00939951	-2.98991	0
60.6956	0.0094186	-2.93961	0
60.7078	0.0094377	-2.88932	0
60.7204	0.0094186	-2.83928	0
60.7338	0.0094377	-2.78918	0
60.748	0.00949497	-2.73774	0
60.7624	0.00945679	-2.68771	0
60.7778	0.00949497	-2.63754	0
60.7936	0.00949497	-2.58737	0
60.8106	0.0094186	-2.53683	0
60.8284	0.0094186	-2.48615	0
60.8468	0.0094186	-2.43599	0
60.8664	0.00934224	-2.38557	0
60.887	0.00957133	-2.33438	0
60.9086	0.00949497	-2.28403	0
60.9312	0.00947588	-2.23373	0
60.9552	0.00938042	-2.1837	0
60.9804	0.00945679	-2.13245	0
61.0074	0.00951406	-2.08158	0
61.0356	0.00951406	-2.03135	0
61.065	0.00953315	-1.98081	0
61.0968	0.0094186	-1.93026	0
61.1298	0.00951406	-1.87984	0
61.165	0.00934224	-1.82923	0
61.202	0.00947588	-1.77887	0
61.2416	0.00939951	-1.72845	0
61.2828	0.00938042	-1.67809	0
61.3276	0.0094186	-1.6278	0
61.3746	0.0094377	-1.57745	0
61.4258	0.00939951	-1.52741	0
61.48	0.00949497	-1.47731	0
61.537	0.00947588	-1.42714	0
61.5996	0.00947588	-1.3771	0
61.668	0.00939951	-1.32687	0
61.7418	0.00951406	-1.27677	0
61.8212	0.00945679	-1.22629	0
61.9078	0.00947588	-1.17625	0
62.0038	0.0094186	-1.12583	0
62.1088	0.00947588	-1.07579	0
62.2254	0.00934224	-1.0255	0
62.3546	0.00945679	-0.975269	0
62.4992	0.00932315	-0.925167	0
62.6626	0.00939951	-0.874556	0
62.85	0.00949497	-0.824327	0
63.0632	0.00953315	-0.773907	0
63.3094	0.00947588	-0.723551	0
63.5948	0.00951406	-0.673449	0
63.9374	0.00945679	-0.623347	0
64.3312	0.00949497	-0.572863	0
64.8202	0.00947588	-0.522762	0
65.0528	0.00949497	-0.501817	0
65.0534	0.00947588	-0.50169	0
65.7068	0.0094377	-0.451652	0
66.591	0.0094186	-0.401612	0
67.7234	0.00936133	-0.351591	0
69.296	0.0094377	-0.301552	0
71.5946	0.00955224	-0.251538	0
75.246	0.00939951	-0.201473	0
81.754	0.00947588	-0.151383	0
91.754	0.00951406	-0.112664	0
101.754	0.00939951	-0.0913531	0
111.754	0.00953315	-0.0766259	0
121.754	0.0094377	-0.0659672	0
131.754	0.0094186	-0.0579255	0
141.754	0.00945679	-0.0521633	0
151.754	0.00928497	-0.0472287	0
161.754	0.00938042	-0.0433849	0
171.754	0.0094377	-0.0399345	0
174.29	0.00939951	-0.039177	0
174.29	0.00945679	-0.0392801	0