File: EXPERIMENTAL/Data/Battery-cycling/JP-measurements/C-cell/2024-04-19_JP-measurements_sample-A8-01_C-cell_Cu-Li-Cellgard2400-separator_25muL-LiFSI-in-DME_outside-glovebox_sigma-0.02_03_CP_C10.txt
time/s	Ewe/V	I/mA	error
1504.55	0.00788238	-0.0242163	1
1504.57	0.00564961	-0.0242159	0
1504.61	0.00356951	-0.024217	0
1504.65	0.0013749	-0.0242165	0
1504.69	-0.000705202	-0.0242169	0
1504.73	-0.00288072	-0.0242161	0
1504.78	-0.00494174	-0.0242165	0
1504.83	-0.00698368	-0.024216	0
1504.88	-0.00902562	-0.0242158	0
1504.94	-0.0110676	-0.0242156	0
1505	-0.0131095	-0.0242166	0
1505.06	-0.0151705	-0.0242162	0
1505.13	-0.0172888	-0.024216	0
1505.19	-0.0193689	-0.024216	0
1505.27	-0.0214299	-0.0242161	0
1505.34	-0.0234528	-0.0242158	0
1505.42	-0.0255329	-0.0242157	0
1505.5	-0.027613	-0.0242149	0
1505.58	-0.0297121	-0.0242161	0
1505.67	-0.031735	-0.0242162	0
1505.76	-0.0337579	-0.0242159	0
1505.86	-0.0357807	-0.0242154	0
1505.96	-0.0378417	-0.0242163	0
1506.06	-0.0398646	-0.0242158	0
1506.18	-0.0419447	-0.0242162	0
1506.29	-0.0440248	-0.0242156	0
1506.42	-0.0460667	-0.0242159	0
1506.55	-0.0481087	-0.0242163	0
1506.69	-0.0501315	-0.0242161	0
1506.84	-0.0523643	-0.0242159	0
1507.01	-0.0545016	-0.0242161	0
1507.18	-0.0565245	-0.0242159	0
1507.37	-0.0585664	-0.0242163	0
1507.57	-0.0606274	-0.0242156	0
1507.79	-0.0626503	-0.0242157	0
1508.03	-0.0647304	-0.0242161	0
1508.31	-0.0667533	-0.0242161	0
1508.63	-0.0687952	-0.0242159	0
1509.02	-0.0708371	-0.024216	0
1509.62	-0.0728791	-0.024216	0
1511.45	-0.0708562	-0.0242158	0
1511.96	-0.0687952	-0.0242157	0
1512.42	-0.0667533	-0.0242161	0
1512.88	-0.0647304	-0.0242161	0
1513.36	-0.0627076	-0.024216	0
1513.89	-0.0606656	-0.0242158	0
1514.52	-0.0586428	-0.0242161	0
1515.25	-0.0565817	-0.0242161	0
1516.21	-0.0545398	-0.024216	0
1517.42	-0.0524979	-0.0242159	0
1519.09	-0.050475	-0.0242156	0
1521.39	-0.0484522	-0.0242154	0
1524.94	-0.0463721	-0.024216	0
1530.13	-0.0443492	-0.0242166	0
1537.6	-0.0423073	-0.0242163	0
1547.48	-0.0407043	-0.024216	0
1557.4	-0.0391394	-0.0242163	0
1567.4	-0.0380516	-0.024216	0
1577.4	-0.0370975	-0.0242163	0
1587.4	-0.036315	-0.0242163	0
1597.4	-0.0356853	-0.0242163	0
1607.4	-0.0348265	-0.0242159	0
1617.4	-0.0342731	-0.0242159	0
1627.4	-0.0336243	-0.0242159	0
1637.4	-0.0330899	-0.024216	0
1647.4	-0.0327464	-0.0242159	0
1657.4	-0.0322312	-0.0242165	0
1667.4	-0.0317159	-0.0242167	0
1677.4	-0.0313342	-0.0242152	0
1687.4	-0.0309144	-0.0242158	0
1697.4	-0.0306282	-0.0242161	0
1707.4	-0.0302083	-0.0242158	0
1717.4	-0.0299984	-0.0242161	0
1727.4	-0.0295976	-0.0242165	0
1737.4	-0.0292732	-0.0242158	0
1747.4	-0.0291206	-0.0242162	0
1757.4	-0.0289297	-0.0242165	0
1767.4	-0.0284908	-0.0242156	0
1777.4	-0.0282809	-0.0242161	0
1787.4	-0.0282046	-0.0242163	0
1797.4	-0.0279183	-0.0242164	0
1807.4	-0.0276702	-0.0242161	0
1817.4	-0.0274603	-0.0242163	0
1827.4	-0.0272695	-0.0242165	0
1837.4	-0.0269641	-0.024216	0
1847.4	-0.0269832	-0.0242161	0
1857.4	-0.0267733	-0.024216	0
1867.4	-0.0265061	-0.0242158	0
1877.4	-0.0263916	-0.0242158	0
1887.4	-0.0262199	-0.024216	0
1897.4	-0.0261244	-0.0242165	0
1907.4	-0.0259527	-0.0242165	0
1917.4	-0.0257809	-0.024216	0
1927.4	-0.0257619	-0.0242159	0
1937.4	-0.0255901	-0.0242156	0
1947.4	-0.0254756	-0.0242159	0
1957.4	-0.0253611	-0.0242169	0
1967.4	-0.0251894	-0.0242161	0
1977.4	-0.025113	-0.0242158	0
1987.4	-0.0250558	-0.0242161	0
1997.4	-0.0249222	-0.0242158	0
2007.4	-0.0247886	-0.0242161	0
2017.4	-0.0247314	-0.0242159	0
2027.4	-0.0245787	-0.0242159	0
2037.4	-0.0243878	-0.0242161	0
2047.4	-0.024426	-0.0242165	0
2057.4	-0.0242924	-0.0242161	0
2067.4	-0.0242733	-0.0242159	0
2077.4	-0.024197	-0.0242161	0
2087.4	-0.0240825	-0.024216	0
2097.4	-0.0240062	-0.0242159	0
2107.4	-0.0240062	-0.0242163	0
2117.4	-0.0238726	-0.0242164	0
2127.4	-0.0236818	-0.0242163	0
2137.4	-0.023739	-0.0242162	0
2147.4	-0.0236818	-0.0242163	0
2157.4	-0.0235482	-0.0242158	0
2167.4	-0.0235482	-0.0242165	0
2177.4	-0.0233573	-0.024216	0
2187.4	-0.0233955	-0.0242165	0
2197.4	-0.0233383	-0.0242166	0
2207.4	-0.0233001	-0.024216	0
2217.4	-0.0231856	-0.0242164	0
2227.4	-0.0231474	-0.0242163	0
2237.4	-0.0230329	-0.0242156	0
2247.4	-0.0229757	-0.0242159	0
2257.4	-0.0230329	-0.024216	0
2267.4	-0.0228802	-0.0242164	0
2277.4	-0.0229757	-0.0242168	0
2287.4	-0.0228039	-0.0242157	0
2297.4	-0.0225749	-0.0242157	0
2307.4	-0.0226894	-0.0242162	0
2317.4	-0.022594	-0.0242169	0
2327.4	-0.0226322	-0.0242163	0
2337.4	-0.0225367	-0.0242163	0
2347.4	-0.0224986	-0.0242163	0
2357.4	-0.0225749	-0.0242164	0
2367.4	-0.0225177	-0.0242159	0
2377.4	-0.0223459	-0.0242162	0
2387.4	-0.0224413	-0.0242166	0
2397.4	-0.022365	-0.0242158	0
2407.4	-0.0223459	-0.0242154	0
2417.4	-0.0220978	-0.0242161	0
2427.4	-0.0220787	-0.0242158	0
2437.4	-0.0221169	-0.0242156	0
2447.4	-0.0220978	-0.0242157	0
2457.4	-0.0220978	-0.0242156	0
2467.4	-0.022136	-0.024216	0
2477.4	-0.0220406	-0.0242156	0
2487.4	-0.0218879	-0.0242165	0
2497.4	-0.0219261	-0.0242165	0
2507.4	-0.0218879	-0.0242161	0
2517.4	-0.0218497	-0.0242163	0
2527.4	-0.0219261	-0.0242158	0
2537.4	-0.0218116	-0.0242161	0
2547.4	-0.0218116	-0.0242159	0
2557.4	-0.0217925	-0.0242163	0
2567.4	-0.0217352	-0.0242163	0
2577.4	-0.021678	-0.0242161	0
2587.4	-0.0217352	-0.024216	0
2597.4	-0.0217352	-0.0242164	0
2607.4	-0.0217162	-0.0242161	0
2617.4	-0.0215253	-0.0242157	0
2627.4	-0.0215062	-0.0242159	0
2637.4	-0.0214872	-0.0242154	0
2647.4	-0.0215444	-0.0242167	0
2657.4	-0.0214872	-0.0242154	0
2667.4	-0.0215253	-0.0242159	0
2677.4	-0.0213917	-0.0242163	0
2687.4	-0.021449	-0.0242161	0
2697.4	-0.0214872	-0.0242156	0
2707.4	-0.0214681	-0.0242157	0
2717.4	-0.021449	-0.0242166	0
2727.4	-0.0212772	-0.0242156	0
2737.4	-0.0214108	-0.0242162	0
2747.4	-0.0213917	-0.0242161	0
2757.4	-0.0213536	-0.0242166	0
2767.4	-0.0212391	-0.0242166	0
2777.4	-0.0213917	-0.0242161	0
2787.4	-0.0213345	-0.0242161	0
2797.4	-0.0212391	-0.0242164	0
2807.4	-0.0212582	-0.0242167	0
2817.4	-0.0211436	-0.024216	0
2827.4	-0.0212391	-0.0242156	0
2837.4	-0.02122	-0.0242158	0
2847.4	-0.0210291	-0.0242161	0
2857.4	-0.0211627	-0.0242162	0
2867.4	-0.0211627	-0.024216	0
2877.4	-0.0211055	-0.0242155	0
2887.4	-0.0211627	-0.0242163	0
2897.4	-0.0210101	-0.0242164	0
2907.4	-0.0210101	-0.0242158	0
2917.4	-0.0210864	-0.0242162	0
2927.4	-0.0208956	-0.0242163	0
2937.4	-0.0209146	-0.0242159	0
2947.4	-0.0210673	-0.0242161	0
2957.4	-0.0210291	-0.0242163	0
2967.4	-0.0208574	-0.0242161	0
2977.4	-0.0209337	-0.0242161	0
2987.4	-0.0209528	-0.024216	0
2997.4	-0.0210673	-0.0242158	0
3007.4	-0.0209146	-0.0242164	0
3017.4	-0.0208001	-0.0242161	0
3027.4	-0.0208765	-0.024216	0
3037.4	-0.0209337	-0.0242158	0
3047.4	-0.0207811	-0.0242163	0
3057.4	-0.0208383	-0.0242165	0
3067.4	-0.0208383	-0.0242161	0
3077.4	-0.0208192	-0.0242162	0
3087.4	-0.0208192	-0.0242161	0
3097.4	-0.0209146	-0.0242163	0
3107.4	-0.0206856	-0.0242168	0
3117.4	-0.0208574	-0.0242159	0
3127.4	-0.0207429	-0.0242161	0
3137.4	-0.0207238	-0.0242161	0
3147.4	-0.0206666	-0.024216	0
3157.4	-0.0207047	-0.0242156	0
3167.4	-0.0207047	-0.0242164	0
3177.4	-0.0206475	-0.0242161	0
3187.4	-0.0206856	-0.0242165	0
3197.4	-0.0206475	-0.0242164	0
3207.4	-0.0206856	-0.0242157	0
3217.4	-0.0207238	-0.0242158	0
3227.4	-0.0204948	-0.0242161	0
3237.4	-0.020533	-0.024216	0
3247.4	-0.0206284	-0.0242161	0
3257.4	-0.0206093	-0.0242158	0
3267.4	-0.0205902	-0.0242171	0
3277.4	-0.0205711	-0.0242156	0
3287.4	-0.0204376	-0.0242157	0
3297.4	-0.0204566	-0.0242164	0
3304.55	-0.0206093	-0.0242161	0