File: EXPERIMENTAL/Data/Battery-cycling/JP-measurements/C-cell/2024-04-23_JP-measurements_sample-A7-02_C-cell_Cu-Li-Cellgard2400-separator_25muL-LiFSI-in-DME_outside-glovebox_sigma-0.02_added-OCV-0.1s_04_CP_C10.txt
time/s	Ewe/V	I/mA	error
9519.11	0.00922905	-0.019311	0
9519.19	0.00139398	-0.019451	0
9519.34	-0.00599134	-0.0194319	0
9519.5	-0.0132812	-0.019451	0
9519.7	-0.0205711	-0.019451	0
9519.91	-0.0278801	-0.0194383	0
9520.15	-0.0352273	-0.0194128	0
9520.42	-0.0424981	-0.0194256	0
9520.71	-0.0496353	-0.0194893	0
9521.05	-0.0570207	-0.0194702	0
9521.44	-0.0642915	-0.0194829	0
9521.89	-0.0714478	-0.019502	0
9522.44	-0.0786423	-0.019502	0
9523.28	-0.0858749	-0.0194001	0
9525.15	-0.0828216	-0.0194956	0
9525.9	-0.0755508	-0.0195338	0
9526.66	-0.0683372	-0.0195084	0
9527.65	-0.061219	-0.0194702	0
9529.4	-0.0540436	-0.0193683	0
9533.86	-0.0469255	-0.0194192	0
9552.51	-0.0398073	-0.0194765	0
9618.01	-0.0344449	-0.019502	0
9688.01	-0.0315251	-0.0194638	0
9758.01	-0.0292923	-0.0194893	0
9828.01	-0.0279183	-0.0194893	0
9898.01	-0.0267733	-0.0194829	0
9968.01	-0.0260863	-0.0195211	0
10038	-0.0253229	-0.019451	0
10108	-0.0249222	-0.0194829	0
10178	-0.0245978	-0.0194638	0
10248	-0.0242161	-0.0194447	0
10318	-0.0238535	-0.0195402	0
10388	-0.0236818	-0.0195275	0
10458	-0.0233955	-0.0194638	0
10528	-0.0233001	-0.0194893	0
10598	-0.0229566	-0.0195147	0
10668	-0.0228039	-0.0194574	0
10738	-0.0227085	-0.0195147	0
10808	-0.0225177	-0.0194638	0
10878	-0.0223459	-0.0195211	0
10948	-0.0222696	-0.0194765	0
11018	-0.0221742	-0.019502	0
11088	-0.0220406	-0.0194893	0
11158	-0.0218688	-0.0195529	0
11228	-0.0217352	-0.0195147	0
11298	-0.0218116	-0.0194702	0
11368	-0.0215635	-0.0194956	0
11438	-0.0215826	-0.0194574	0
11508	-0.0214299	-0.0194638	0
11578	-0.0213345	-0.0193937	0
11648	-0.0213727	-0.0194638	0
11718	-0.0210864	-0.0195211	0
11788	-0.0210482	-0.0194956	0
11858	-0.0211627	-0.0194638	0
11928	-0.0210864	-0.0195084	0
11998	-0.0210864	-0.019502	0
12068	-0.0209528	-0.0195275	0
12138	-0.0208765	-0.0194447	0
12208	-0.0208001	-0.0195593	0
12278	-0.020762	-0.0195147	0
12348	-0.0206666	-0.0194702	0
12418	-0.0205711	-0.019502	0
12488	-0.0205521	-0.0194893	0
12558	-0.0204185	-0.0194893	0
12628	-0.0203421	-0.0195466	0
12698	-0.0204185	-0.0195466	0
12768	-0.0203994	-0.0195275	0
12838	-0.020304	-0.0195275	0
12908	-0.0203231	-0.0194893	0
12978	-0.0201704	-0.0194893	0
13048	-0.0200941	-0.0194956	0
13118	-0.0202086	-0.0195466	0
13188	-0.0200559	-0.0194702	0
13258	-0.0199796	-0.0194702	0
13328	-0.0199223	-0.0194829	0
13398	-0.0198651	-0.0195466	0
13468	-0.0199032	-0.0194893	0
13538	-0.019846	-0.0195147	0
13608	-0.0197887	-0.0195211	0
13678	-0.0197315	-0.019451	0
13748	-0.0197506	-0.019451	0
13818	-0.0197315	-0.0195084	0
13888	-0.0196742	-0.019502	0
13958	-0.0195597	-0.0194702	0
14028	-0.0196933	-0.0195529	0
14098	-0.0195406	-0.0194638	0
14168	-0.0195025	-0.0194447	0
14238	-0.0195406	-0.0194829	0
14308	-0.0194643	-0.0195084	0
14378	-0.019388	-0.0195402	0
14448	-0.0194643	-0.0194383	0
14518	-0.0195025	-0.0194574	0
14588	-0.0193689	-0.0195084	0
14658	-0.0193116	-0.0194893	0
14728	-0.0192353	-0.0194638	0
14798	-0.0193689	-0.0194893	0
14868	-0.0193307	-0.0195084	0
14938	-0.0191971	-0.0194829	0
15008	-0.0192353	-0.0195529	0
15078	-0.019159	-0.019502	0
15148	-0.0191971	-0.0194574	0
15218	-0.0191208	-0.0195338	0
15288	-0.019178	-0.0194065	0
15358	-0.0191971	-0.0195211	0
15428	-0.0191017	-0.0194638	0
15498	-0.0190445	-0.0195529	0
15568	-0.019178	-0.0194638	0
15638	-0.0190826	-0.0194893	0
15708	-0.0190063	-0.0194829	0
15778	-0.0190063	-0.019502	0
15848	-0.0190826	-0.0194829	0
15918	-0.0190826	-0.0194638	0
15988	-0.0190445	-0.0195593	0
16058	-0.0189681	-0.0194893	0
16128	-0.0189109	-0.0195275	0
16198	-0.0190063	-0.0195784	0
16268	-0.0188918	-0.0195338	0
16338	-0.0190063	-0.0194893	0
16408	-0.0189109	-0.0194702	0
16478	-0.0190445	-0.0194574	0
16548	-0.01893	-0.0194319	0
16618	-0.0190254	-0.0195529	0
16688	-0.0188727	-0.0195466	0
16758	-0.0188918	-0.0195211	0
16828	-0.0188918	-0.0195657	0
16898	-0.0187964	-0.0195657	0
16968	-0.0187582	-0.0194956	0
17038	-0.0188155	-0.0194956	0
17108	-0.0188345	-0.0195147	0
17178	-0.0187964	-0.0194702	0
17248	-0.0187773	-0.0195529	0
17318	-0.0188918	-0.0194956	0
17388	-0.0187391	-0.019502	0
17458	-0.0187964	-0.0194765	0
17528	-0.0186437	-0.0194956	0
17598	-0.0187773	-0.019451	0
17668	-0.0188155	-0.0195275	0
17738	-0.0187964	-0.0194893	0
17808	-0.0187391	-0.0194702	0
17878	-0.0187964	-0.0195084	0
17948	-0.018701	-0.0194638	0
18018	-0.0186628	-0.0194956	0
18088	-0.01872	-0.0194702	0
18158	-0.0188155	-0.0195402	0
18228	-0.01872	-0.0195211	0
18298	-0.0185483	-0.0195084	0
18368	-0.0185674	-0.0194829	0
18438	-0.0186628	-0.0194574	0
18508	-0.01872	-0.0194765	0
18578	-0.0185674	-0.0194638	0
18648	-0.0185483	-0.0195338	0
18718	-0.0186246	-0.0195338	0
18788	-0.0185292	-0.0195275	0
18858	-0.0185292	-0.0195147	0
18928	-0.0185674	-0.0195466	0
18998	-0.0185292	-0.0195911	0
19068	-0.0185674	-0.0195147	0
19138	-0.0185483	-0.0194765	0
19208	-0.0187773	-0.0194829	0
19278	-0.018491	-0.0194893	0
19348	-0.0185101	-0.019451	0
19418	-0.0184147	-0.0195275	0
19488	-0.018472	-0.0194956	0
19558	-0.0186055	-0.0194956	0
19628	-0.0184529	-0.0195275	0
19698	-0.0183193	-0.0194765	0
19768	-0.0183956	-0.019502	0
19838	-0.0183384	-0.0195211	0
19908	-0.0183384	-0.0195338	0
19978	-0.0183002	-0.0195211	0
20048	-0.0183193	-0.0195402	0
20118	-0.018262	-0.0194574	0
20188	-0.0183956	-0.0194447	0
20258	-0.018262	-0.0195211	0
20328	-0.0183193	-0.019502	0
20398	-0.0182811	-0.0195657	0
20468	-0.018243	-0.0195084	0
20538	-0.0182811	-0.0194192	0
20608	-0.018262	-0.0194956	0
20678	-0.0182239	-0.0194383	0
20748	-0.018243	-0.0195275	0
20818	-0.0182048	-0.0194829	0
20888	-0.0182048	-0.0195466	0
20958	-0.0182239	-0.0195338	0
21028	-0.0181666	-0.0195147	0
21098	-0.018262	-0.0194702	0
21168	-0.018262	-0.0194638	0
21238	-0.0180903	-0.0195211	0
21308	-0.018243	-0.019572	0
21378	-0.0181475	-0.0194956	0
21448	-0.0181285	-0.0194447	0
21518	-0.0181666	-0.0194702	0
21588	-0.0181285	-0.0194383	0
21658	-0.0181285	-0.0195275	0
21728	-0.0181475	-0.0195402	0
21798	-0.0181094	-0.0195275	0
21868	-0.0180521	-0.0195147	0
21938	-0.0180521	-0.019502	0
22008	-0.0181094	-0.0194383	0
22078	-0.0180903	-0.0195084	0
22148	-0.0180712	-0.0194447	0
22218	-0.018033	-0.0194702	0
22288	-0.0180521	-0.0194893	0
22358	-0.018033	-0.0194702	0
22428	-0.018033	-0.0194829	0
22498	-0.018014	-0.0195338	0
22568	-0.0178804	-0.0194893	0
22638	-0.0179758	-0.0195402	0
22708	-0.018033	-0.019502	0
22778	-0.018033	-0.0193874	0
22848	-0.0179185	-0.019502	0
22918	-0.0179949	-0.0194893	0
22988	-0.018014	-0.0194447	0
23058	-0.0178995	-0.0195211	0
23128	-0.0179949	-0.0194765	0
23198	-0.0179376	-0.0194383	0
23268	-0.0180903	-0.0194829	0
23338	-0.0179758	-0.0195211	0
23408	-0.0179758	-0.0194893	0
23478	-0.0180712	-0.019572	0
23548	-0.0179949	-0.0194893	0
23618	-0.0179185	-0.0195593	0
23688	-0.0179376	-0.019502	0
23758	-0.0179949	-0.0194829	0
23828	-0.0179758	-0.0194956	0
23898	-0.0178995	-0.0194638	0
23968	-0.0179949	-0.0194893	0
24038	-0.0178422	-0.019502	0
24108	-0.0178613	-0.0195275	0
24178	-0.0178995	-0.0195657	0
24248	-0.0179949	-0.0195275	0
24318	-0.0178995	-0.0195275	0
24388	-0.0178995	-0.0195147	0
24458	-0.0177849	-0.0195338	0
24528	-0.0179567	-0.0194256	0
24598	-0.0178995	-0.0195466	0
24668	-0.0179376	-0.0194702	0
24738	-0.0178995	-0.0195275	0
24808	-0.0179949	-0.0194447	0
24878	-0.0179376	-0.0195084	0
24948	-0.0179185	-0.0194829	0
25018	-0.0179185	-0.0195147	0
25088	-0.0179376	-0.0195084	0
25158	-0.0179567	-0.0195529	0
25228	-0.0177849	-0.0195338	0
25298	-0.0178804	-0.0195402	0
25368	-0.0178804	-0.0195338	0
25438	-0.0178422	-0.0195657	0
25508	-0.0177468	-0.0194447	0
25578	-0.0177277	-0.019502	0
25648	-0.0177849	-0.0194574	0
25718	-0.0178422	-0.0195275	0
25788	-0.0176895	-0.0195338	0
25858	-0.0177086	-0.0194765	0
25928	-0.0177849	-0.0195275	0
25998	-0.0178422	-0.0194956	0
26068	-0.017804	-0.0195402	0
26138	-0.0177277	-0.0194765	0
26208	-0.0177849	-0.0194574	0
26278	-0.0178231	-0.0194893	0
26348	-0.0178422	-0.0194765	0
26418	-0.0177277	-0.0195275	0
26488	-0.0177659	-0.0195084	0
26558	-0.0177277	-0.0195338	0
26628	-0.0176895	-0.0195084	0
26698	-0.0176895	-0.0195147	0
26768	-0.017575	-0.0195402	0
26838	-0.0177468	-0.0195147	0
26908	-0.0177277	-0.0194893	0
26978	-0.0177659	-0.0195211	0
27048	-0.0175941	-0.0195529	0
27118	-0.0175559	-0.0194893	0
27188	-0.0175941	-0.019451	0
27258	-0.0176704	-0.0195211	0
27328	-0.0175559	-0.019502	0
27398	-0.0176323	-0.0194447	0
27468	-0.017575	-0.0194638	0
27519.1	-0.0175369	-0.0195593	0