File: EXPERIMENTAL/Data/Battery-cycling/JP-measurements/C-cell/2024-04-23_JP-measurements_sample-A9-03_C-cell_Cu-Li-Cellgard2400-separator_25muL-LiFSI-in-DME_outside-glovebox_sigma-0.02_added-OCV-0.1_04_CP_C10.txt
time/s	Ewe/V	I/mA	error
245.752	-0.071401	-1.94429	0
245.753	-0.157743	-1.95949	0
245.753	-0.178296	-1.95952	0
245.754	-0.194556	-1.95952	0
245.755	-0.208677	-1.95951	0
245.755	-0.221139	-1.95954	0
245.756	-0.232627	-1.95952	0
245.756	-0.243009	-1.95957	0
245.757	-0.252684	-1.95959	0
245.758	-0.261539	-1.95953	0
245.758	-0.269897	-1.95956	0
245.759	-0.277722	-1.95952	0
245.759	-0.285088	-1.95956	0
245.76	-0.291767	-1.95952	0
245.761	-0.298217	-1.95956	0
245.761	-0.304343	-1.95955	0
245.762	-0.310125	-1.95957	0
245.762	-0.31545	-1.9595	0
245.763	-0.320488	-1.95956	0
245.764	-0.325354	-1.95958	0
245.764	-0.329953	-1.95956	0
245.765	-0.334171	-1.95957	0
245.765	-0.33835	-1.9596	0
245.766	-0.34209	-1.95961	0
245.767	-0.345773	-1.95959	0
245.767	-0.349189	-1.95961	0
245.768	-0.352491	-1.95959	0
245.769	-0.358521	-1.95957	0
245.77	-0.364017	-1.95963	0
245.771	-0.368674	-1.95955	0
245.773	-0.37291	-1.95963	0
245.774	-0.376612	-1.95959	0
245.775	-0.380544	-1.95959	0
245.777	-0.384227	-1.95956	0
245.779	-0.387604	-1.95962	0
245.782	-0.390753	-1.95962	0
245.794	-0.391898	-1.95957	0
245.801	-0.388749	-1.95956	0
245.807	-0.385448	-1.95963	0
245.813	-0.382261	-1.95964	0
245.819	-0.378998	-1.95957	0
245.825	-0.375754	-1.95963	0
245.832	-0.372643	-1.95958	0
245.839	-0.369532	-1.95962	0
245.846	-0.366384	-1.95961	0
245.855	-0.363178	-1.95963	0
245.864	-0.359971	-1.95963	0
245.874	-0.356861	-1.95967	0
245.885	-0.353693	-1.95959	0
245.897	-0.350544	-1.95957	0
245.912	-0.347281	-1.95966	0
245.929	-0.344037	-1.95953	0
245.949	-0.340926	-1.95963	0
245.974	-0.337892	-1.95961	0
246.005	-0.334819	-1.95957	0
246.052	-0.331785	-1.95956	0
246.145	-0.328675	-1.95961	0
246.644	-0.329686	-1.95959	0
246.934	-0.332758	-1.95963	0
247.204	-0.335812	-1.95959	0
247.477	-0.338922	-1.95963	0
247.737	-0.342014	-1.95961	0
248.011	-0.345201	-1.9596	0
248.281	-0.348331	-1.9596	0
248.549	-0.351441	-1.95959	0
248.824	-0.354552	-1.95957	0
249.097	-0.357624	-1.95963	0
249.372	-0.360658	-1.95961	0
249.647	-0.363731	-1.95959	0
249.928	-0.366784	-1.95961	0
250.22	-0.369933	-1.95963	0
250.503	-0.372986	-1.95957	0
250.804	-0.376078	-1.95961	0
251.107	-0.379189	-1.95958	0
251.42	-0.382299	-1.95964	0
251.739	-0.385372	-1.9596	0
252.056	-0.388406	-1.95958	0
252.391	-0.391536	-1.95963	0
252.74	-0.394646	-1.95958	0
253.092	-0.3977	-1.9596	0
253.452	-0.400753	-1.95962	0
253.837	-0.403845	-1.95963	0
254.232	-0.406879	-1.95959	0
254.638	-0.409932	-1.95962	0
255.076	-0.412986	-1.95957	0
255.539	-0.416115	-1.95958	0
256.033	-0.419226	-1.95957	0
256.557	-0.422298	-1.95963	0
257.13	-0.425409	-1.95956	0
257.73	-0.428462	-1.95964	0
258.411	-0.431535	-1.95958	0
259.171	-0.434569	-1.95954	0
260.046	-0.437641	-1.95959	0
261.12	-0.440676	-1.95957	0
262.579	-0.443729	-1.95957	0
268.95	-0.44476	-1.95965	0
271.088	-0.441706	-1.95962	0
272.662	-0.438634	-1.95961	0
273.988	-0.435561	-1.95956	0
275.19	-0.432508	-1.95959	0
276.317	-0.429474	-1.95961	0
277.377	-0.426401	-1.95964	0
278.41	-0.42331	-1.95957	0
279.386	-0.420218	-1.95959	0
280.389	-0.417127	-1.95958	0
281.351	-0.414016	-1.95964	0
282.31	-0.410886	-1.95962	0
283.219	-0.407833	-1.9596	0
284.146	-0.404761	-1.95956	0
285.074	-0.401688	-1.95957	0
285.974	-0.398635	-1.9596	0
286.89	-0.395562	-1.95963	0
287.799	-0.392471	-1.95962	0
288.712	-0.389379	-1.95961	0
289.606	-0.386345	-1.95959	0
290.512	-0.383215	-1.95957	0
291.415	-0.380181	-1.95955	0
292.302	-0.377128	-1.95966	0
293.167	-0.374074	-1.95964	0
294.006	-0.37104	-1.95962	0
294.858	-0.367987	-1.95966	0
295.698	-0.364857	-1.95963	0
296.47	-0.361804	-1.95962	0
297.22	-0.358731	-1.95962	0
297.555	-0.347109	-1.95966	0
297.559	-0.343789	-1.95962	0
297.594	-0.339781	-1.95961	0
297.618	-0.342968	-1.95962	0
297.623	-0.346766	-1.95961	0
297.626	-0.350487	-1.95961	0
297.637	-0.354056	-1.95964	0
297.649	-0.346327	-1.95959	0
297.659	-0.343197	-1.95968	0
297.677	-0.339094	-1.95966	0
297.685	-0.344514	-1.95963	0
297.688	-0.34106	-1.95963	0
297.704	-0.339228	-1.95961	0
297.711	-0.342472	-1.95963	0
297.718	-0.340659	-1.95964	0
297.725	-0.341957	-1.95956	0
297.732	-0.345602	-1.9596	0
297.739	-0.343025	-1.95965	0
297.752	-0.346174	-1.95964	0
297.761	-0.349304	-1.9596	0
297.77	-0.348254	-1.95971	0
297.772	-0.340583	-1.95963	0
297.793	-0.331804	-1.95963	0
297.806	-0.330621	-1.95959	0
297.816	-0.324133	-1.95961	0
297.842	-0.322377	-1.9596	0
297.852	-0.318637	-1.95964	0
297.863	-0.321995	-1.95957	0
297.866	-0.313255	-1.95962	0
297.9	-0.311843	-1.95964	0
297.921	-0.31148	-1.95959	0
297.931	-0.314915	-1.95964	0
297.944	-0.313599	-1.95963	0
297.961	-0.314686	-1.95964	0
297.969	-0.317911	-1.95957	0
297.98	-0.321022	-1.95959	0
297.988	-0.31585	-1.95966	0
298.003	-0.316614	-1.9597	0
298.006	-0.32106	-1.95959	0
298.009	-0.319858	-1.95967	0
298.014	-0.319934	-1.95963	0
298.032	-0.318637	-1.95964	0
298.04	-0.313618	-1.95962	0
298.06	-0.314686	-1.95962	0
298.078	-0.317873	-1.9596	0
298.088	-0.308446	-1.95962	0
298.11	-0.30503	-1.95961	0
298.119	-0.30816	-1.9596	0
298.127	-0.311385	-1.95962	0
298.132	-0.308732	-1.95964	0
298.144	-0.305145	-1.9596	0
298.153	-0.298923	-1.95966	0
298.166	-0.29982	-1.95968	0
298.173	-0.30316	-1.95963	0
298.18	-0.304019	-1.95963	0
298.181	-0.3044	-1.95964	0
298.187	-0.307587	-1.95961	0
298.192	-0.311423	-1.95961	0
298.195	-0.311385	-1.95959	0
298.204	-0.311957	-1.95963	0
298.213	-0.315049	-1.95964	0
298.221	-0.3119	-1.95961	0
298.23	-0.315163	-1.95963	0
298.242	-0.310164	-1.95958	0
298.263	-0.308293	-1.95958	0
298.264	-0.295698	-1.95959	0
298.269	-0.288771	-1.95974	0
298.271	-0.281996	-1.95959	0
298.276	-0.277951	-1.95959	0
298.29	-0.269573	-1.95964	0
298.294	-0.26192	-1.95965	0
298.297	-0.257455	-1.95959	0
298.311	-0.256062	-1.95961	0
298.314	-0.257684	-1.95966	0
298.322	-0.255031	-1.95967	0
298.333	-0.256024	-1.95959	0
298.34	-0.249325	-1.95962	0
298.354	-0.243791	-1.95963	0
298.365	-0.242226	-1.95963	0
298.368	-0.240089	-1.95961	0
298.382	-0.237207	-1.95962	0
298.391	-0.240719	-1.95963	0
298.397	-0.244822	-1.95966	0
298.403	-0.238257	-1.95959	0
298.414	-0.23486	-1.95957	0
298.421	-0.237971	-1.95962	0
298.429	-0.238123	-1.95964	0
298.432	-0.238963	-1.95963	0
298.437	-0.237131	-1.95963	0
298.445	-0.237818	-1.95961	0
298.454	-0.241081	-1.95957	0
298.466	-0.241043	-1.95953	0
298.467	-0.234058	-1.95965	0
298.479	-0.229803	-1.95963	0
298.485	-0.223658	-1.95961	0
298.501	-0.2182	-1.95961	0
298.516	-0.218734	-1.95963	0
298.522	-0.214937	-1.95963	0
298.536	-0.215051	-1.95958	0
298.549	-0.212074	-1.95969	0
298.557	-0.207437	-1.95972	0
298.56	-0.201502	-1.95969	0
298.572	-0.200471	-1.95962	0
298.582	-0.194861	-1.95962	0
298.602	-0.189327	-1.95959	0
298.609	-0.183964	-1.95961	0
298.619	-0.180109	-1.95967	0
298.654	-0.176274	-1.95967	0
298.687	-0.176693	-1.9596	0
298.697	-0.177151	-1.95966	0
298.712	-0.181617	-1.95958	0
298.717	-0.180186	-1.9596	0
298.724	-0.176732	-1.95957	0
298.746	-0.172266	-1.95964	0
298.749	-0.16782	-1.95963	0
298.757	-0.166503	-1.95964	0
298.777	-0.164671	-1.95961	0
298.781	-0.161179	-1.95961	0
298.807	-0.157648	-1.95959	0
298.813	-0.153679	-1.95964	0
298.831	-0.149957	-1.95961	0
298.854	-0.148717	-1.9596	0
298.886	-0.149366	-1.95961	0
298.933	-0.150492	-1.95959	0
298.952	-0.151446	-1.95955	0
298.96	-0.150263	-1.95961	0
298.984	-0.146656	-1.95962	0
298.991	-0.14324	-1.95961	0
299.016	-0.139939	-1.95959	0
299.026	-0.136542	-1.95963	0
299.08	-0.132935	-1.95968	0
299.086	-0.129538	-1.95957	0
299.11	-0.128317	-1.95967	0
299.167	-0.12471	-1.95963	0
299.191	-0.123546	-1.95959	0
299.209	-0.120092	-1.95961	0
299.3	-0.116886	-1.95957	0
299.391	-0.117668	-1.95961	0
299.47	-0.114443	-1.95963	0
299.572	-0.111371	-1.95961	0
299.639	-0.108184	-1.95961	0
299.661	-0.105054	-1.95962	0
299.805	-0.101962	-1.95961	0
299.952	-0.0988517	-1.95963	0
300.045	-0.0957411	-1.95953	0
300.143	-0.0926114	-1.95964	0
300.333	-0.0916382	-1.95961	0
300.538	-0.0884512	-1.95964	0
300.765	-0.0848253	-1.95964	0
301.183	-0.0816956	-1.95959	0
301.321	-0.0784896	-1.95965	0
301.751	-0.0752836	-1.95966	0
302.516	-0.0721539	-1.95965	0
304.017	-0.0690814	-1.95963	0
306.003	-0.066009	-1.95961	0
307.639	-0.0629366	-1.95959	0
309.634	-0.0598641	-1.95961	0
314.66	-0.0568107	-1.95962	0
323.662	-0.0568107	-1.95964	0
333.362	-0.056868	-1.95963	0
337.744	-0.0557993	-1.95966	0
345.267	-0.0575932	-1.95963	0
350.188	-0.0586618	-1.95959	0
358.714	-0.060761	-1.95961	0
369.022	-0.0605129	-1.95959	0
374.478	-0.0615244	-1.95962	0
382.394	-0.062803	-1.95965	0
394.831	-0.0656655	-1.95958	0
404.426	-0.0666578	-1.95959	0
414.062	-0.0693104	-1.95963	0
423.524	-0.0718676	-1.95964	0
425.752	-0.0720585	-1.9597	0