File: EXPERIMENTAL/Data/Battery-cycling/JP-measurements/C-cell/2024-04-22_JP-measurements_sample-A9-02_C-cell_Cu-Li-Cellgard2400-separator_25muL-LiFSI-in-DME_outside-glovebox_sigma-0.02_added-OCV-0.1s_04_CP_C11.txt
time/s	Ewe/V	I/mA	error
182.44	-0.036954	-1.94538	0
182.445	-0.141436	-1.95955	0
182.45	-0.18488	-1.95956	0
182.455	-0.218245	-1.95959	0
182.46	-0.248385	-1.95958	0
182.47	-0.284824	-1.95962	0
182.481	-0.315097	-1.95957	0
182.499	-0.343748	-1.95955	0
182.531	-0.369612	-1.9596	0
184.311	-0.388566	-1.95963	0
187.264	-0.413342	-1.9596	0
190.022	-0.438099	-1.9597	0
192.812	-0.46297	-1.95964	0
195.749	-0.487689	-1.9596	0
198.839	-0.512293	-1.95969	0
202.223	-0.53705	-1.95963	0
205.987	-0.561616	-1.9596	0
210.402	-0.586392	-1.9596	0
215.633	-0.611053	-1.95965	0
222.886	-0.635676	-1.95965	0
233.566	-0.60462	-1.95968	0
233.595	-0.611587	-1.95958	0
233.616	-0.608724	-1.9597	0
233.641	-0.600898	-1.95963	0
233.652	-0.608266	-1.95974	0
233.667	-0.605823	-1.95937	0
233.686	-0.592748	-1.95964	0
233.703	-0.598646	-1.95933	0
233.714	-0.589102	-1.95957	0
233.726	-0.58204	-1.95969	0
233.737	-0.584769	-1.9596	0
233.748	-0.576485	-1.95975	0
233.757	-0.578718	-1.95972	0
233.768	-0.58246	-1.95962	0
233.782	-0.584292	-1.95967	0
233.794	-0.573813	-1.95962	0
233.805	-0.578604	-1.95965	0
233.824	-0.571522	-1.95964	0
233.847	-0.56612	-1.95962	0
233.866	-0.584254	-1.95971	0
233.888	-0.543444	-1.95967	0
233.911	-0.535656	-1.95958	0
233.927	-0.554095	-1.95961	0
233.951	-0.548063	-1.95946	0
233.97	-0.522753	-1.9597	0
233.997	-0.546803	-1.95967	0
234.012	-0.55503	-1.95973	0
234.025	-0.549571	-1.9596	0
234.033	-0.539455	-1.95967	0
234.045	-0.553198	-1.95959	0
234.064	-0.532984	-1.95973	0
234.078	-0.534893	-1.95966	0
234.09	-0.535274	-1.95967	0
234.108	-0.538214	-1.95958	0
234.12	-0.523994	-1.95953	0
234.134	-0.505097	-1.95965	0
234.156	-0.495896	-1.95963	0
234.173	-0.499294	-1.95953	0
234.182	-0.526322	-1.95983	0
234.195	-0.516969	-1.95965	0
234.207	-0.501661	-1.95963	0
234.223	-0.497691	-1.95953	0
234.235	-0.45606	-1.9596	0
234.246	-0.479614	-1.9596	0
234.255	-0.496374	-1.95962	0
234.266	-0.487021	-1.95958	0
234.278	-0.489788	-1.95964	0
234.293	-0.461825	-1.95962	0
234.305	-0.479576	-1.9596	0
234.312	-0.475969	-1.95968	0
234.334	-0.441057	-1.95967	0
234.347	-0.450086	-1.95964	0
234.36	-0.465967	-1.95956	0
234.373	-0.447013	-1.9596	0
234.383	-0.447108	-1.95967	0
234.396	-0.424374	-1.95988	0
234.408	-0.454037	-1.95963	0
234.418	-0.432277	-1.95961	0
234.433	-0.429624	-1.95979	0
234.442	-0.439988	-1.95965	0
234.463	-0.422657	-1.9596	0
234.477	-0.426875	-1.95962	0
234.489	-0.432048	-1.95965	0
234.5	-0.433193	-1.9596	0
234.509	-0.457854	-1.95958	0
234.524	-0.403359	-1.95967	0
234.539	-0.438385	-1.95956	0
234.549	-0.430673	-1.95959	0
234.57	-0.428268	-1.95966	0
234.582	-0.401622	-1.95962	0
234.598	-0.413055	-1.95964	0
234.619	-0.397117	-1.95963	0
234.629	-0.411509	-1.95971	0
234.649	-0.378029	-1.95966	0
234.669	-0.369134	-1.95964	0
234.697	-0.358846	-1.95963	0
234.719	-0.371444	-1.9596	0
234.743	-0.375281	-1.95955	0
234.76	-0.383584	-1.95968	0
234.801	-0.350944	-1.95965	0
234.841	-0.367378	-1.95958	0
234.866	-0.363427	-1.95961	0
234.891	-0.352337	-1.95972	0
234.931	-0.363618	-1.95963	0
234.949	-0.364286	-1.95969	0
234.98	-0.346611	-1.95972	0
234.998	-0.363942	-1.95965	0
235.019	-0.350848	-1.95965	0
235.046	-0.339777	-1.9596	0
235.072	-0.340388	-1.95956	0
235.092	-0.354036	-1.95963	0
235.121	-0.334891	-1.95962	0
235.185	-0.318494	-1.95965	0
235.245	-0.313913	-1.95967	0
235.299	-0.328096	-1.95968	0
235.356	-0.335158	-1.95962	0
235.425	-0.327103	-1.95967	0
235.469	-0.324144	-1.9597	0
235.554	-0.316261	-1.95962	0
235.613	-0.324202	-1.95974	0
235.696	-0.324087	-1.95966	0
235.761	-0.324087	-1.9596	0
235.823	-0.318265	-1.95957	0
235.883	-0.316204	-1.9596	0
235.956	-0.312558	-1.95967	0
236.042	-0.306965	-1.95963	0
236.127	-0.297517	-1.95972	0
236.237	-0.302232	-1.95961	0
236.325	-0.308168	-1.95969	0
236.408	-0.293394	-1.95965	0
236.515	-0.286885	-1.95963	0
236.623	-0.293413	-1.95962	0
236.773	-0.286866	-1.95964	0
236.917	-0.292974	-1.95963	0
237.082	-0.292554	-1.95969	0
237.286	-0.29494	-1.95972	0
237.403	-0.301697	-1.95964	0
237.535	-0.306202	-1.95962	0
237.78	-0.304198	-1.95963	0
237.934	-0.307557	-1.95961	0
238.219	-0.298624	-1.95967	0
238.441	-0.301296	-1.95965	0
238.632	-0.28637	-1.95963	0
238.908	-0.295494	-1.95963	0
239.191	-0.311718	-1.95964	0
239.419	-0.328382	-1.95969	0
239.68	-0.31336	-1.95965	0
239.988	-0.318361	-1.95963	0
240.268	-0.332257	-1.95963	0
240.654	-0.336456	-1.95967	0
240.836	-0.330195	-1.95967	0
241.043	-0.32821	-1.95969	0
241.449	-0.333058	-1.95961	0
241.892	-0.335521	-1.95957	0
242.265	-0.332619	-1.95971	0
242.615	-0.330062	-1.95965	0
242.911	-0.31733	-1.95964	0
243.463	-0.319544	-1.95963	0
243.891	-0.330596	-1.95964	0
244.56	-0.3368	-1.95959	0
245.279	-0.352299	-1.95969	0
245.833	-0.359896	-1.95967	0
246.179	-0.357567	-1.95961	0
246.571	-0.341209	-1.95963	0
247.047	-0.354914	-1.95962	0
247.296	-0.363122	-1.95969	0
247.42	-0.353559	-1.95967	0
247.901	-0.355639	-1.9596	0
248.312	-0.352375	-1.95958	0
248.774	-0.349474	-1.95967	0
249.123	-0.365279	-1.95963	0
249.728	-0.350314	-1.95966	0
250.157	-0.361499	-1.95966	0
250.65	-0.355677	-1.95962	0
251.263	-0.359304	-1.95965	0
251.619	-0.363389	-1.95965	0
252.025	-0.358197	-1.95963	0
252.899	-0.373353	-1.95967	0
253.251	-0.365298	-1.95967	0
253.436	-0.365412	-1.95963	0
253.644	-0.357071	-1.95963	0
254.16	-0.359151	-1.95967	0
254.583	-0.351726	-1.9596	0
255.337	-0.349665	-1.95969	0
255.997	-0.342736	-1.95971	0
256.06	-0.329928	-1.95969	0
256.136	-0.323133	-1.95961	0
256.207	-0.323648	-1.95961	0
256.283	-0.302575	-1.9596	0
256.317	-0.317712	-1.95962	0
256.385	-0.303052	-1.95966	0
256.458	-0.309638	-1.9597	0
256.527	-0.305534	-1.95962	0
256.579	-0.292077	-1.9596	0
256.623	-0.300075	-1.95965	0
256.69	-0.291103	-1.9596	0
256.777	-0.280281	-1.95971	0
256.833	-0.27465	-1.95963	0
256.874	-0.252393	-1.95967	0
256.945	-0.244835	-1.95958	0
257.032	-0.231378	-1.95965	0
257.163	-0.233458	-1.95963	0
257.279	-0.230557	-1.95966	0
257.428	-0.218054	-1.95966	0
257.543	-0.219982	-1.95957	0
257.671	-0.218684	-1.95964	0
257.844	-0.199902	-1.9596	0
258.026	-0.201315	-1.95963	0
258.221	-0.197631	-1.9596	0
258.452	-0.193584	-1.95966	0
258.67	-0.181578	-1.9596	0
259.258	-0.181406	-1.95965	0
260.112	-0.169209	-1.95961	0
260.708	-0.171079	-1.95965	0
261.583	-0.159646	-1.9596	0
263.101	-0.163941	-1.95967	0
264.272	-0.173981	-1.95963	0
265.553	-0.175241	-1.95965	0
267.161	-0.183429	-1.95962	0
268.457	-0.184823	-1.95967	0
269.833	-0.190893	-1.95961	0
270.87	-0.204693	-1.95965	0
272.194	-0.2104	-1.95969	0
273.288	-0.210572	-1.9596	0
274.375	-0.218054	-1.95962	0
275.637	-0.221261	-1.95967	0
276.334	-0.21815	-1.95965	0
277.605	-0.231149	-1.95967	0
278.832	-0.229641	-1.95963	0
280.127	-0.235157	-1.95962	0
281.089	-0.234546	-1.95965	0
281.56	-0.245045	-1.95959	0
282.455	-0.241494	-1.95962	0
283.337	-0.241017	-1.9596	0
284.082	-0.229927	-1.95955	0
285.203	-0.229564	-1.95966	0
286.137	-0.24285	-1.95964	0
287.155	-0.254073	-1.95968	0
288.229	-0.254035	-1.95965	0
289.464	-0.266557	-1.95961	0
290.614	-0.258998	-1.95962	0
291.823	-0.264419	-1.95966	0
292.805	-0.248309	-1.95962	0
293.86	-0.258253	-1.95968	0
294.995	-0.255486	-1.9596	0
295.941	-0.255085	-1.95967	0
297.237	-0.256784	-1.95962	0
297.557	-0.262014	-1.95952	0
297.839	-0.257967	-1.95965	0
298.633	-0.260353	-1.95955	0
299.487	-0.255696	-1.95963	0
300.642	-0.26335	-1.95963	0
301.493	-0.255677	-1.95967	0
302.841	-0.245159	-1.95963	0
303.698	-0.25058	-1.95963	0
305.073	-0.241819	-1.95962	0
306.38	-0.244338	-1.95965	0
308.199	-0.246133	-1.95963	0
310.866	-0.249855	-1.95967	0
312.114	-0.253462	-1.95962	0
313.338	-0.244758	-1.95963	0
314.026	-0.248328	-1.95967	0
315.761	-0.249148	-1.95968	0
317.128	-0.242544	-1.95965	0
318.132	-0.252775	-1.95969	0
319.651	-0.251611	-1.95962	0
321.072	-0.235157	-1.95963	0
322.641	-0.228343	-1.95963	0
324.867	-0.229889	-1.95965	0
325.918	-0.244682	-1.95963	0
327.423	-0.24075	-1.9596	0
330.21	-0.227617	-1.9596	0
331.694	-0.235081	-1.95963	0
334.262	-0.245178	-1.95965	0
336.247	-0.239891	-1.95963	0
338.321	-0.238059	-1.95966	0
340.155	-0.24201	-1.9597	0
342.129	-0.23657	-1.95965	0
343.86	-0.23029	-1.95967	0
345.796	-0.235119	-1.95967	0
346.203	-0.232561	-1.95963	0
346.905	-0.234718	-1.95965	0
347.53	-0.232218	-1.95967	0
348.159	-0.221815	-1.95967	0
349.196	-0.210477	-1.9597	0
349.751	-0.206048	-1.95969	0
350.17	-0.195283	-1.95962	0
351.103	-0.187686	-1.95958	0
352.101	-0.179745	-1.95963	0
353.241	-0.178772	-1.95966	0
354.195	-0.184613	-1.95967	0
355.712	-0.179688	-1.95962	0
357.076	-0.1853	-1.95963	0
358.425	-0.183906	-1.9597	0
360.507	-0.185414	-1.95965	0
362.383	-0.189308	-1.95967	0
362.44	-0.187648	-1.95965	0