File: EXPERIMENTAL/Data/Battery-cycling/JP-measurements/C-cell/2024-04-22_JP-measurements_sample-A9-02_C-cell_Cu-Li-Cellgard2400-separator_25muL-LiFSI-in-DME_outside-glovebox_sigma-0.02_03_CP_C11.txt
time/s	Ewe/V	I/mA	error
204.309	-0.00339426	-0.24223	1
204.31	-0.00476858	-0.242231	0
204.311	-0.00616199	-0.242233	0
204.312	-0.00734543	-0.24223	0
204.313	-0.00843343	-0.242239	0
204.314	-0.00969323	-0.242238	0
204.315	-0.0107431	-0.242227	0
204.316	-0.0117738	-0.242226	0
204.317	-0.0129763	-0.242229	0
204.318	-0.0140452	-0.242233	0
204.319	-0.0150569	-0.242233	0
204.32	-0.0160686	-0.242232	0
204.321	-0.0170993	-0.242232	0
204.322	-0.0181109	-0.242228	0
204.323	-0.0191608	-0.242233	0
204.324	-0.0201724	-0.242232	0
204.325	-0.0212413	-0.242233	0
204.327	-0.0225584	-0.242232	0
204.328	-0.0236273	-0.242233	0
204.329	-0.0247344	-0.242235	0
204.331	-0.0257842	-0.242231	0
204.332	-0.0268532	-0.242226	0
204.333	-0.0279221	-0.24223	0
204.335	-0.0291246	-0.242233	0
204.336	-0.0301935	-0.242231	0
204.337	-0.0312243	-0.242232	0
204.339	-0.0323504	-0.242234	0
204.34	-0.0335148	-0.242234	0
204.342	-0.0345455	-0.242232	0
204.343	-0.0356335	-0.242233	0
204.345	-0.0366452	-0.242232	0
204.346	-0.0377332	-0.242232	0
204.348	-0.0387639	-0.24223	0
204.349	-0.0399283	-0.242239	0
204.351	-0.0411117	-0.242235	0
204.353	-0.0421806	-0.24223	0
204.354	-0.0431923	-0.242228	0
204.356	-0.044204	-0.24223	0
204.358	-0.0452538	-0.242233	0
204.359	-0.046399	-0.242232	0
204.361	-0.047468	-0.242235	0
204.363	-0.0486896	-0.242232	0
204.365	-0.0497012	-0.242232	0
204.367	-0.0507129	-0.242235	0
204.368	-0.0518009	-0.242229	0
204.371	-0.052908	-0.24223	0
204.372	-0.0539196	-0.24223	0
204.374	-0.0550267	-0.242234	0
204.376	-0.0562293	-0.242234	0
204.379	-0.0573554	-0.242229	0
204.381	-0.0584625	-0.242233	0
204.383	-0.0596269	-0.24223	0
204.385	-0.0607149	-0.242233	0
204.387	-0.0617456	-0.242228	0
204.389	-0.0627573	-0.242233	0
204.391	-0.0638644	-0.242233	0
204.393	-0.0649524	-0.242229	0
204.396	-0.0660022	-0.24223	0
204.398	-0.0671284	-0.242231	0
204.4	-0.0682355	-0.242235	0
204.403	-0.0694189	-0.242229	0
204.405	-0.0704497	-0.242233	0
204.408	-0.0714804	-0.242231	0
204.41	-0.0724921	-0.242232	0
204.412	-0.0735037	-0.242232	0
204.415	-0.0745344	-0.242234	0
204.417	-0.0756415	-0.242227	0
204.42	-0.0767868	-0.242237	0
204.423	-0.0778557	-0.242231	0
204.425	-0.0789056	-0.242232	0
204.428	-0.0799554	-0.242234	0
204.431	-0.0810434	-0.242234	0
204.434	-0.0821123	-0.242235	0
204.436	-0.0831621	-0.242233	0
204.439	-0.084231	-0.242225	0
204.442	-0.085319	-0.242233	0
204.445	-0.0863498	-0.242232	0
204.449	-0.0875141	-0.24223	0
204.452	-0.0885831	-0.242232	0
204.455	-0.0896329	-0.242232	0
204.458	-0.0906445	-0.242233	0
204.462	-0.091828	-0.24223	0
204.465	-0.0929733	-0.242234	0
204.469	-0.0939849	-0.242236	0
204.472	-0.0950347	-0.242224	0
204.476	-0.0960655	-0.24223	0
204.479	-0.0970962	-0.242229	0
204.483	-0.098127	-0.242233	0
204.486	-0.0991768	-0.242228	0
204.49	-0.100284	-0.242232	0
204.494	-0.101296	-0.24223	0
204.497	-0.102307	-0.242229	0
204.502	-0.103395	-0.242231	0
204.506	-0.104407	-0.242234	0
204.51	-0.105457	-0.24223	0
204.514	-0.106526	-0.242228	0
204.518	-0.107537	-0.242228	0
204.523	-0.108549	-0.242233	0
204.527	-0.109561	-0.242233	0
204.531	-0.110572	-0.242227	0
204.537	-0.111679	-0.242235	0
204.541	-0.112691	-0.24223	0
204.546	-0.113741	-0.242228	0
204.551	-0.114772	-0.24223	0
204.557	-0.115783	-0.242234	0
204.562	-0.116795	-0.24223	0
204.567	-0.117806	-0.24223	0
204.572	-0.118856	-0.242229	0
204.578	-0.119868	-0.242232	0
204.584	-0.120994	-0.242233	0
204.591	-0.122101	-0.242233	0
204.597	-0.123113	-0.242233	0
204.604	-0.124163	-0.242231	0
204.61	-0.125213	-0.242232	0
204.617	-0.126281	-0.242235	0
204.625	-0.12735	-0.242234	0
204.632	-0.128381	-0.242235	0
204.64	-0.129412	-0.242234	0
204.647	-0.130423	-0.242235	0
204.656	-0.131435	-0.24223	0
204.663	-0.132447	-0.242231	0
204.672	-0.133497	-0.242233	0
204.68	-0.134508	-0.242239	0
204.69	-0.135558	-0.242232	0
204.699	-0.13657	-0.242234	0
204.709	-0.137601	-0.242235	0
204.719	-0.138612	-0.24223	0
204.73	-0.139624	-0.242233	0
204.741	-0.140712	-0.242231	0
204.754	-0.141743	-0.242232	0
204.766	-0.142773	-0.242235	0
204.78	-0.143804	-0.242237	0
204.794	-0.144835	-0.242235	0
204.808	-0.145904	-0.242232	0
204.824	-0.146934	-0.242234	0
204.841	-0.147984	-0.242234	0
204.861	-0.149034	-0.242234	0
204.879	-0.150046	-0.24223	0
204.901	-0.151057	-0.242234	0
204.926	-0.152069	-0.242238	0
204.955	-0.153119	-0.242229	0
204.994	-0.15415	-0.242226	0
205.042	-0.15518	-0.242232	0
205.249	-0.154169	-0.242233	0
205.288	-0.153157	-0.242229	0
205.323	-0.152145	-0.242233	0
205.353	-0.151096	-0.242232	0
205.387	-0.150046	-0.242228	0
205.415	-0.149034	-0.242235	0
205.443	-0.148003	-0.242233	0
205.47	-0.146992	-0.242233	0
205.498	-0.145961	-0.242235	0
205.524	-0.144911	-0.242225	0
205.551	-0.143861	-0.242237	0
205.579	-0.142831	-0.242229	0
205.608	-0.141762	-0.242235	0
205.64	-0.14075	-0.242226	0
205.669	-0.139681	-0.24223	0
205.704	-0.138669	-0.242232	0
205.738	-0.137601	-0.24223	0
205.774	-0.136589	-0.242234	0
205.811	-0.135558	-0.242237	0
205.853	-0.134508	-0.242234	0
205.902	-0.133478	-0.24223	0
205.95	-0.132466	-0.242233	0
206.006	-0.131416	-0.242234	0
206.068	-0.130309	-0.242232	0
206.144	-0.129278	-0.24223	0
206.228	-0.128228	-0.242237	0
206.331	-0.127217	-0.242232	0
206.453	-0.126205	-0.24223	0
206.615	-0.125117	-0.24223	0
206.835	-0.124105	-0.242231	0
207.187	-0.123094	-0.242232	0
208	-0.122063	-0.242233	0
211.129	-0.123075	-0.242233	0
213.109	-0.124105	-0.24223	0
215.267	-0.125117	-0.242237	0
218.015	-0.126148	-0.242237	0
223.015	-0.126911	-0.242235	0
228.015	-0.127159	-0.242231	0
233.015	-0.126682	-0.242232	0
238.015	-0.12611	-0.242232	0
243.015	-0.125346	-0.242233	0
247.692	-0.124258	-0.242229	0
252.692	-0.12359	-0.242228	0
257.692	-0.122865	-0.242228	0
262.189	-0.121853	-0.242232	0
267.189	-0.121242	-0.242234	0
272.189	-0.120612	-0.242238	0
276.794	-0.119601	-0.242231	0
281.794	-0.119104	-0.242232	0
286.605	-0.118093	-0.242232	0
291.605	-0.117692	-0.242233	0
296.605	-0.116986	-0.242233	0
301.605	-0.116279	-0.24223	0
306.605	-0.115611	-0.242236	0
311.605	-0.115096	-0.242232	0
316.605	-0.11439	-0.242235	0
321.605	-0.113779	-0.242235	0
326.605	-0.113359	-0.242237	0
331.605	-0.112748	-0.242236	0
336.605	-0.112386	-0.242232	0
341.605	-0.111794	-0.242237	0
346.605	-0.111278	-0.24223	0
351.605	-0.110706	-0.242226	0
356.605	-0.110362	-0.242233	0
361.605	-0.109923	-0.242233	0
366.605	-0.109484	-0.242235	0
371.605	-0.109026	-0.242235	0
376.605	-0.10874	-0.242232	0
381.605	-0.108243	-0.242234	0
384.308	-0.108034	-0.24223	0