File: EXPERIMENTAL/Data/Battery-cycling/JP-measurements/C-cell/2024-04-22_JP-measurements_sample-A7-01_C-cell_Cu-Li-Cellgard2400-separator_25muL-LiFSI-in-DME_outside-glovebox_sigma-0.02_03_CP_C10.txt
time/s	Ewe/V	I/mA	error
10787.9	0.00732896	-0.0195956	0
10788.1	-0.00608675	-0.0195952	0
10788.4	-0.0194452	-0.0195952	0
10788.7	-0.0327464	-0.0195956	0
10789.1	-0.0460095	-0.0195957	0
10789.6	-0.0593489	-0.0195952	0
10790.3	-0.0729172	-0.0195952	0
10791.4	-0.0863139	-0.0195954	0
10793.8	-0.0791003	-0.0195961	0
10795.1	-0.0658182	-0.0195955	0
10797.7	-0.052536	-0.019596	0
10815.3	-0.0393112	-0.0195956	0
10880.2	-0.0329754	-0.0195956	0
10945.2	-0.029903	-0.0195956	0
11010.2	-0.0277847	-0.0195956	0
11075.2	-0.0265252	-0.0195954	0
11140.2	-0.0253802	-0.0195954	0
11205.2	-0.0244833	-0.0195961	0
11270.2	-0.0239489	-0.0195952	0
11335.2	-0.0234718	-0.0195951	0
11400.2	-0.023052	-0.0195958	0
11465.2	-0.0225749	-0.0195954	0
11530.2	-0.0223268	-0.0195954	0
11595.2	-0.0220787	-0.0195955	0
11660.2	-0.0218879	-0.0195956	0
11725.2	-0.0215444	-0.0195956	0
11790.2	-0.0212772	-0.0195955	0
11855.2	-0.0210673	-0.0195957	0
11920.2	-0.0209337	-0.0195958	0
11985.2	-0.0208956	-0.0195953	0
12050.2	-0.0206093	-0.0195955	0
12115.2	-0.0204566	-0.0195956	0
12180.2	-0.0203231	-0.0195955	0
12245.2	-0.0203421	-0.0195952	0
12310.2	-0.0201322	-0.0195954	0
12375.2	-0.0199986	-0.0195962	0
12440.2	-0.0199414	-0.0195956	0
12505.2	-0.0196933	-0.0195956	0
12570.2	-0.0195025	-0.0195956	0
12635.2	-0.019388	-0.0195956	0
12700.2	-0.019388	-0.0195955	0
12765.2	-0.0194261	-0.0195955	0
12830.2	-0.0192162	-0.0195956	0
12895.2	-0.0192353	-0.0195964	0
12960.2	-0.0192353	-0.0195955	0
13025.2	-0.0190254	-0.0195955	0
13090.2	-0.0189109	-0.0195954	0
13155.2	-0.0188155	-0.0195952	0
13220.2	-0.0188918	-0.0195956	0
13285.2	-0.01872	-0.0195958	0
13350.2	-0.0187582	-0.0195949	0
13415.2	-0.0186628	-0.0195956	0
13480.2	-0.0185674	-0.0195949	0
13545.2	-0.018491	-0.0195954	0
13610.2	-0.0183956	-0.0195953	0
13675.2	-0.0183002	-0.0195955	0
13740.2	-0.0183002	-0.0195956	0
13805.2	-0.0181475	-0.0195955	0
13870.2	-0.0180712	-0.0195958	0
13935.2	-0.0179567	-0.0195956	0
14000.2	-0.0179949	-0.0195955	0
14065.2	-0.0178422	-0.0195956	0
14130.2	-0.0176132	-0.0195955	0
14195.2	-0.0177277	-0.0195956	0
14260.2	-0.0176895	-0.0195954	0
14325.2	-0.0175369	-0.0195959	0
14390.2	-0.0174796	-0.0195954	0
14455.2	-0.0174033	-0.019595	0
14520.2	-0.0173269	-0.0195959	0
14585.2	-0.0173651	-0.0195949	0
14650.2	-0.0172888	-0.0195964	0
14715.2	-0.0171934	-0.0195956	0
14780.2	-0.0172888	-0.0195961	0
14845.2	-0.0174033	-0.0195953	0
14910.2	-0.0174033	-0.0195953	0
14975.2	-0.0172697	-0.0195967	0
15040.2	-0.0173269	-0.0195956	0
15105.2	-0.0172315	-0.0195957	0
15170.2	-0.0173269	-0.0195959	0
15235.2	-0.017346	-0.0195961	0
15300.2	-0.017346	-0.0195959	0
15365.2	-0.0172697	-0.0195959	0
15430.2	-0.0172888	-0.0195947	0
15495.2	-0.0172506	-0.0195952	0
15560.2	-0.0171743	-0.0195957	0
15625.2	-0.0171361	-0.019596	0
15690.2	-0.0171361	-0.0195957	0
15755.2	-0.017117	-0.0195958	0
15820.2	-0.0171552	-0.0195963	0
15885.2	-0.0170598	-0.019596	0
15950.2	-0.0170979	-0.019595	0
16015.2	-0.0170598	-0.0195963	0
16080.2	-0.0169071	-0.0195958	0
16145.2	-0.0170025	-0.0195959	0
16210.2	-0.0168499	-0.019596	0
16275.2	-0.0169834	-0.0195956	0
16340.2	-0.016888	-0.0195951	0
16405.2	-0.0168689	-0.0195952	0
16470.2	-0.0169453	-0.0195952	0
16535.2	-0.0169453	-0.0195955	0
16600.2	-0.0167926	-0.0195955	0
16665.2	-0.0167354	-0.0195958	0
16730.2	-0.0166972	-0.0195956	0
16795.2	-0.0167354	-0.0195958	0
16860.2	-0.0167354	-0.0195958	0
16925.2	-0.0166781	-0.0195957	0
16990.2	-0.0165827	-0.0195954	0
17055.2	-0.0165445	-0.0195961	0
17120.2	-0.0166209	-0.0195958	0
17185.2	-0.0165827	-0.0195954	0
17250.2	-0.0165064	-0.0195957	0
17315.2	-0.0164873	-0.0195956	0
17380.2	-0.0165064	-0.0195956	0
17445.2	-0.0165254	-0.0195958	0
17510.2	-0.0163728	-0.0195956	0
17575.2	-0.01643	-0.0195963	0
17640.2	-0.0163537	-0.019596	0
17705.2	-0.0163346	-0.0195952	0
17770.2	-0.0163728	-0.0195956	0
17835.2	-0.01643	-0.0195955	0
17900.2	-0.0163346	-0.0195958	0
17965.2	-0.0164491	-0.0195952	0
18030.2	-0.016201	-0.0195961	0
18095.2	-0.016201	-0.0195958	0
18160.2	-0.0163728	-0.0195953	0
18225.2	-0.0163537	-0.019596	0
18290.2	-0.0162774	-0.0195956	0
18355.2	-0.0162392	-0.0195959	0
18420.2	-0.0161247	-0.0195961	0
18485.2	-0.016201	-0.0195953	0
18550.2	-0.0161819	-0.0195952	0
18615.2	-0.0161056	-0.0195958	0
18680.2	-0.0160102	-0.0195954	0
18745.2	-0.0160102	-0.019596	0
18810.2	-0.0158766	-0.019596	0
18875.2	-0.0160293	-0.0195956	0
18940.2	-0.0158384	-0.0195956	0
19005.2	-0.0157621	-0.0195955	0
19070.2	-0.0157621	-0.0195955	0
19135.2	-0.0156476	-0.0195961	0
19200.2	-0.0157048	-0.0195958	0
19265.2	-0.0156858	-0.0195958	0
19330.2	-0.0155903	-0.0195956	0
19395.2	-0.0157239	-0.0195954	0
19460.2	-0.0155903	-0.0195957	0
19525.2	-0.0157048	-0.0195954	0
19590.2	-0.0156094	-0.0195958	0
19655.2	-0.0156476	-0.0195962	0
19720.2	-0.0157812	-0.0195959	0
19785.2	-0.0155903	-0.0195956	0
19850.2	-0.0155522	-0.0195959	0
19915.2	-0.015514	-0.0195957	0
19980.2	-0.015514	-0.0195954	0
20045.2	-0.015514	-0.0195956	0
20110.2	-0.0154949	-0.0195952	0
20175.2	-0.0153804	-0.0195955	0
20240.2	-0.0153232	-0.0195959	0
20305.2	-0.0154186	-0.0195954	0
20370.2	-0.0153995	-0.0195958	0
20435.2	-0.0154758	-0.0195956	0
20500.2	-0.0154568	-0.0195954	0
20565.2	-0.0155331	-0.0195954	0
20630.2	-0.0155903	-0.0195959	0
20695.2	-0.0156094	-0.0195959	0
20760.2	-0.0158384	-0.0195955	0
20825.2	-0.0157048	-0.0195959	0
20890.2	-0.0156858	-0.0195956	0
20955.2	-0.0158193	-0.0195961	0
21020.2	-0.0158575	-0.0195961	0
21085.2	-0.0158193	-0.019596	0
21150.2	-0.0158003	-0.019596	0
21215.2	-0.0157621	-0.019596	0
21280.2	-0.0159148	-0.0195954	0
21345.2	-0.0158766	-0.0195958	0
21410.2	-0.0158575	-0.0195958	0
21475.2	-0.0157812	-0.0195956	0
21540.2	-0.0158003	-0.0195956	0
21605.2	-0.0158193	-0.0195949	0
21670.2	-0.015972	-0.0195954	0
21735.2	-0.015972	-0.019596	0
21800.2	-0.0158575	-0.0195952	0
21865.2	-0.0159529	-0.0195958	0
21930.2	-0.0159338	-0.0195954	0
21995.2	-0.0160293	-0.0195952	0
22060.2	-0.0160102	-0.0195955	0
22125.2	-0.0159529	-0.0195955	0
22190.2	-0.0158766	-0.0195958	0
22255.2	-0.0159911	-0.0195952	0
22320.2	-0.0158957	-0.0195959	0
22385.2	-0.0160293	-0.019596	0
22450.2	-0.0160293	-0.0195952	0
22515.2	-0.0159911	-0.0195958	0
22580.2	-0.0158575	-0.019595	0
22645.2	-0.0159529	-0.0195961	0
22710.2	-0.0158384	-0.0195958	0
22775.2	-0.0159529	-0.0195956	0
22840.2	-0.0159148	-0.0195959	0
22905.2	-0.0159338	-0.0195954	0
22970.2	-0.0157812	-0.0195956	0
23035.2	-0.0158384	-0.019596	0
23100.2	-0.0158957	-0.0195952	0
23165.2	-0.0159338	-0.0195959	0
23230.2	-0.0159338	-0.0195951	0
23295.2	-0.0157812	-0.0195956	0
23360.2	-0.0157239	-0.019596	0
23425.2	-0.0158193	-0.0195951	0
23490.2	-0.0157621	-0.0195954	0
23555.2	-0.0156858	-0.0195955	0
23620.2	-0.0157048	-0.0195956	0
23685.2	-0.0158193	-0.0195954	0
23750.2	-0.0157621	-0.0195958	0
23815.2	-0.0158193	-0.0195951	0
23880.2	-0.0157621	-0.0195958	0
23945.2	-0.0158575	-0.0195958	0
24010.2	-0.0158384	-0.0195956	0
24075.2	-0.0158575	-0.0195955	0
24140.2	-0.0158003	-0.0195954	0
24205.2	-0.015743	-0.0195956	0
24270.2	-0.0157621	-0.0195949	0
24335.2	-0.0156858	-0.0195956	0
24400.2	-0.0158766	-0.0195954	0
24465.2	-0.0156476	-0.0195958	0
24530.2	-0.0157621	-0.0195955	0
24595.2	-0.0157621	-0.0195955	0
24660.2	-0.0157621	-0.0195954	0
24725.2	-0.0156667	-0.0195959	0
24790.2	-0.0156858	-0.0195952	0
24855.2	-0.0157239	-0.0195959	0
24920.2	-0.0156094	-0.0195959	0
24985.2	-0.0156667	-0.0195956	0
25050.2	-0.0157048	-0.0195951	0
25115.2	-0.0157048	-0.0195954	0
25180.2	-0.0155713	-0.0195959	0
25245.2	-0.0157621	-0.0195955	0
25310.2	-0.0156858	-0.0195956	0
25375.2	-0.0158575	-0.0195959	0
25440.2	-0.0156094	-0.0195959	0
25505.2	-0.0157621	-0.019596	0
25570.2	-0.0156667	-0.0195961	0
25635.2	-0.0156285	-0.0195955	0
25700.2	-0.0155713	-0.0195961	0
25765.2	-0.0156476	-0.0195954	0
25830.2	-0.0156476	-0.0195951	0
25895.2	-0.015743	-0.0195959	0
25960.2	-0.0156476	-0.0195965	0
26025.2	-0.0155713	-0.0195959	0
26090.2	-0.0156667	-0.0195959	0
26155.2	-0.0157048	-0.0195958	0
26220.2	-0.0156094	-0.0195955	0
26285.2	-0.0156667	-0.0195958	0
26350.2	-0.0156858	-0.0195957	0
26415.2	-0.0156476	-0.0195959	0
26480.2	-0.0156285	-0.0195955	0
26545.2	-0.0156094	-0.0195954	0
26610.2	-0.0156285	-0.0195955	0
26675.2	-0.0156667	-0.0195963	0
26740.2	-0.0156094	-0.0195954	0
26805.2	-0.0156858	-0.0195951	0
26870.2	-0.0156094	-0.0195952	0
26935.2	-0.0157048	-0.0195956	0
27000.2	-0.0156667	-0.0195954	0
27065.2	-0.0156476	-0.0195954	0
27130.2	-0.0156858	-0.0195954	0
27195.2	-0.0156476	-0.0195956	0
27260.2	-0.0155522	-0.0195957	0
27325.2	-0.0156667	-0.0195959	0
27390.2	-0.0156667	-0.0195956	0
27455.2	-0.0156285	-0.0195959	0
27520.2	-0.0156858	-0.0195956	0
27585.2	-0.0158003	-0.0195952	0
27650.2	-0.0156094	-0.0195953	0
27715.2	-0.0156476	-0.0195958	0
27780.2	-0.0156858	-0.0195961	0
27845.2	-0.0156667	-0.0195956	0
27910.2	-0.0157239	-0.0195955	0
27975.2	-0.0157048	-0.0195956	0
28040.2	-0.0156094	-0.0195957	0
28105.2	-0.0156667	-0.0195956	0
28170.2	-0.0156858	-0.0195957	0
28235.2	-0.0154949	-0.0195954	0
28300.2	-0.0155713	-0.0195955	0
28365.2	-0.0157048	-0.019596	0
28430.2	-0.0156094	-0.0195947	0
28495.2	-0.0155713	-0.0195944	0
28560.2	-0.0157239	-0.0195956	0
28625.2	-0.0155713	-0.0195955	0
28690.2	-0.0156858	-0.0195954	0
28755.2	-0.0157048	-0.0195954	0
28787.9	-0.0156094	-0.0195956	0