File: EXPERIMENTAL/Data/Cell-cycling/E-measurements/C-cell/2024-04-26_E-measurements_sample-Ionic-electrolyte-02_C-cell_Cu-Li-Cellgard2400-separator_25muL-ionic-electrolyte_outside-glovebox_sigma-0.02_added-OCV-0.1s_02_MB_C02.txt
time/s	Ewe/V	I/mA	error
60.053	2.65335	-0.0250311	0
60.1132	0.00928675	-0.549717	0
60.1286	0.00938219	-0.499397	0
60.15	0.00934401	-0.449337	0
60.1806	0.0093631	-0.399201	0
60.2258	0.00945854	-0.349123	0
60.2962	0.00930584	-0.299051	0
60.4146	0.00926766	-0.248991	0
60.641	0.00940128	-0.198976	0
61.1804	0.00947763	-0.148961	0
63.0798	0.00930584	-0.0989524	0
65.0528	0.00932492	-0.0818352	0
65.0534	0.00947763	-0.0817779	0
75.0534	0.00930584	-0.0574101	0
85.0534	0.00930584	-0.0505925	0
95.0534	0.00942037	-0.047206	0
105.053	0.00932492	-0.0451536	0
115.053	0.00928675	-0.0434724	0
125.053	0.00926766	-0.0421093	0
135.053	0.00938219	-0.0409321	0
145.053	0.0093631	-0.0398898	0
155.053	0.00932492	-0.0389372	0
165.053	0.00934401	-0.0380482	0
175.053	0.00932492	-0.0372382	0
185.053	0.00934401	-0.0364548	0
195.053	0.0093631	-0.0357161	0
205.053	0.00919131	-0.0350237	0
215.053	0.00926766	-0.0342729	0
225.053	0.00928675	-0.0335894	0
235.053	0.00938219	-0.0330002	0
245.053	0.00932492	-0.0324345	0
255.053	0.00934401	-0.0319165	0
265.053	0.00922948	-0.0314628	0
275.053	0.00947763	-0.0308226	0
285.053	0.00930584	-0.0302544	0
295.053	0.00921039	-0.0297192	0
305.053	0.00938219	-0.0291504	0
315.053	0.00926766	-0.028619	0
325.053	0.00938219	-0.02815	0
335.053	0.00942037	-0.0276537	0
345.053	0.00932492	-0.027214	0
355.053	0.00932492	-0.026801	0
365.053	0.00932492	-0.0264001	0
375.053	0.00938219	-0.0260202	0
385.053	0.00942037	-0.0256492	0
395.053	0.00934401	-0.0252846	0
405.053	0.00926766	-0.0249486	0
415.053	0.00947763	-0.0246222	0
425.053	0.00934401	-0.024311	0
435.053	0.00930584	-0.0239744	0
445.053	0.00932492	-0.0236365	0
455.053	0.00934401	-0.0233209	0
465.053	0.0093631	-0.0230186	0
475.053	0.00947763	-0.0227393	0
485.053	0.00932492	-0.0224275	0
495.053	0.00932492	-0.0221379	0
505.053	0.00938219	-0.021849	0
515.053	0.00934401	-0.0215525	0
525.053	0.00938219	-0.0213037	0
535.053	0.00934401	-0.0210135	0
545.053	0.00938219	-0.0207145	0
555.053	0.00932492	-0.020451	0
565.053	0.00934401	-0.0201971	0
575.053	0.00924857	-0.0199216	0
585.053	0.00928675	-0.0196906	0
595.053	0.00942037	-0.0194297	0
605.053	0.00924857	-0.0191892	0
615.053	0.00940128	-0.0189416	0
625.053	0.00938219	-0.0187017	0
635.053	0.00934401	-0.0184835	0
645.053	0.00934401	-0.0182455	0
655.053	0.00932492	-0.0180247	0
665.053	0.00930584	-0.017814	0
675.053	0.0093631	-0.0175818	0
685.053	0.0093631	-0.017382	0
695.053	0.00930584	-0.0171453	0
705.053	0.0093631	-0.0169461	0
715.053	0.00924857	-0.0167488	0
725.053	0.00928675	-0.0165566	0
735.053	0.00938219	-0.0163753	0
745.053	0.00930584	-0.0161723	0
755.053	0.00922948	-0.0159776	0
765.053	0.00930584	-0.0157981	0
775.053	0.00934401	-0.015613	0
785.053	0.00951581	-0.015431	0
795.053	0.00934401	-0.0152547	0
805.053	0.00924857	-0.0150848	0
815.053	0.00932492	-0.0149041	0
825.053	0.00928675	-0.0147463	0
835.053	0.0093631	-0.0145706	0
845.053	0.00924857	-0.014416	0
855.053	0.0093631	-0.0142544	0
865.053	0.00932492	-0.0140934	0
875.053	0.00928675	-0.0139356	0
885.053	0.00930584	-0.0137899	0
895.053	0.00924857	-0.0136429	0
905.053	0.00926766	-0.0134927	0
915.053	0.00928675	-0.0133361	0
925.053	0.00934401	-0.0131949	0
935.053	0.00928675	-0.0130632	0
945.053	0.00928675	-0.0129206	0
955.053	0.00940128	-0.0127806	0
965.053	0.00930584	-0.0126514	0
975.053	0.00921039	-0.0125159	0
985.053	0.00930584	-0.0123886	0
995.053	0.00934401	-0.012255	0
1005.05	0.0093631	-0.0121405	0
1015.05	0.00942037	-0.0120113	0
1025.05	0.00947763	-0.0118853	0
1035.05	0.00926766	-0.0117752	0
1045.05	0.00926766	-0.0116619	0
1055.05	0.00921039	-0.0115391	0
1065.05	0.0093631	-0.0114278	0
1075.05	0.00938219	-0.011326	0
1085.05	0.0093631	-0.0112127	0
1095.05	0.00934401	-0.0110969	0
1105.05	0.00928675	-0.0110002	0
1115.05	0.0093631	-0.0108933	0
1125.05	0.00932492	-0.0107921	0
1135.05	0.00930584	-0.0106794	0
1145.05	0.00924857	-0.010584	0
1155.05	0.00938219	-0.0104796	0
1165.05	0.00932492	-0.0103905	0
1175.05	0.00930584	-0.0102913	0
1185.05	0.0093631	-0.0101799	0
1195.05	0.00921039	-0.0101023	0
1205.05	0.00926766	-0.0099992	0
1215.05	0.00932492	-0.00990121	0
1225.05	0.00922948	-0.0098083	0
1235.05	0.00940128	-0.00973385	0
1245.05	0.00932492	-0.00964667	0
1255.05	0.00940128	-0.00956013	0
1265.05	0.00940128	-0.00946341	0
1275.05	0.00930584	-0.00938259	0
1285.05	0.00940128	-0.00929987	0
1295.05	0.0093631	-0.00919678	0
1305.05	0.00934401	-0.00913633	0
1315.05	0.00940128	-0.00905361	0
1325.05	0.00932492	-0.00895434	0
1335.05	0.00926766	-0.00889834	0
1345.05	0.00940128	-0.00880925	0
1355.05	0.00932492	-0.00872717	0
1365.05	0.0093631	-0.00865081	0
1375.05	0.00924857	-0.00858081	0
1385.05	0.00934401	-0.00848791	0
1395.05	0.00930584	-0.00842682	0
1405.05	0.00934401	-0.00834791	0
1415.05	0.00932492	-0.00827282	0
1425.05	0.00930584	-0.00819837	0
1435.05	0.00932492	-0.00813474	0
1445.05	0.00932492	-0.00806474	0
1455.05	0.00932492	-0.00799411	0
1465.05	0.00930584	-0.00792984	0
1475.05	0.00938219	-0.00784712	0
1485.05	0.00928675	-0.00778475	0
1495.05	0.00942037	-0.0077313	0
1505.05	0.00930584	-0.00765367	0
1515.05	0.00930584	-0.00758685	0
1525.05	0.00928675	-0.00751622	0
1535.05	0.00938219	-0.00746086	0
1545.05	0.00924857	-0.00739277	0
1555.05	0.00928675	-0.00733423	0
1565.05	0.00934401	-0.00728778	0
1575.05	0.00928675	-0.00720887	0
1585.05	0.00930584	-0.00715606	0
1595.05	0.0093631	-0.00709369	0
1605.05	0.00926766	-0.00702879	0
1615.05	0.00934401	-0.00697215	0
1625.05	0.00934401	-0.00691488	0
1635.05	0.0093631	-0.00685889	0
1645.05	0.0093631	-0.00679716	0
1655.05	0.00928675	-0.00674244	0
1665.05	0.00928675	-0.00667435	0
1675.05	0.00932492	-0.00663299	0
1685.05	0.00934401	-0.0065719	0
1695.05	0.00932492	-0.00651654	0
1705.05	0.00930584	-0.00645354	0
1715.05	0.00940128	-0.00639818	0
1725.05	0.00926766	-0.006353	0
1735.05	0.00938219	-0.00629573	0
1745.05	0.0093631	-0.006241	0
1755.05	0.00930584	-0.00621746	0
1765.05	0.00934401	-0.00613728	0
1775.05	0.00932492	-0.00609274	0
1785.05	0.00924857	-0.00604438	0
1795.05	0.00928675	-0.00598965	0
1805.05	0.00928675	-0.00594447	0
1815.05	0.00915313	-0.00589229	0
1825.05	0.0093631	-0.0058522	0
1835.05	0.0093631	-0.00580321	0
1845.05	0.00938219	-0.00574848	0
1855.05	0.00924857	-0.00571476	0
1865.05	0.00942037	-0.00565239	0
1875.05	0.00938219	-0.00560467	0
1885.05	0.00942037	-0.00556267	0
1895.05	0.00938219	-0.00550795	0
1905.05	0.00932492	-0.0054914	0
1915.05	0.00930584	-0.0054195	0
1925.05	0.00932492	-0.00537686	0
1935.05	0.00926766	-0.00534123	0
1945.05	0.00926766	-0.00528968	0
1955.05	0.00928675	-0.00525468	0
1965.05	0.00924857	-0.00519805	0
1975.05	0.00930584	-0.00516814	0
1985.05	0.00924857	-0.00511024	0
1995.05	0.00926766	-0.00508033	0
2005.05	0.00932492	-0.00504406	0
2015.05	0.00940128	-0.0049957	0
2025.05	0.00928675	-0.00495179	0
2035.05	0.00930584	-0.00491934	0
2045.05	0.00928675	-0.00488434	0
2055.05	0.00943945	-0.00483089	0
2065.05	0.00932492	-0.00479461	0
2075.05	0.00938219	-0.00477043	0
2085.05	0.00924857	-0.00472144	0
2095.05	0.00938219	-0.00468707	0
2105.05	0.00940128	-0.00465717	0
2115.05	0.00919131	-0.00462344	0
2125.05	0.00932492	-0.00458271	0
2135.05	0.00930584	-0.00453563	0
2145.05	0.00926766	-0.00450954	0
2155.05	0.00932492	-0.00449546	0
2165.05	0.00924857	-0.00446248	0
2175.05	0.00930584	-0.0044244	0
2185.05	0.0093631	-0.00438785	0
2195.05	0.00945854	-0.00435945	0
2205.05	0.0093631	-0.00432392	0
2215.05	0.00934401	-0.00429164	0
2225.05	0.00934401	-0.00425388	0
2235.05	0.00943945	-0.00423038	0
2245.05	0.00930584	-0.00419727	0
2255.05	0.0093631	-0.00415989	0
2265.05	0.00940128	-0.00412863	0
2275.05	0.00932492	-0.00410456	0
2285.05	0.00930584	-0.00407164	0
2295.05	0.00924857	-0.00403801	0
2305.05	0.00938219	-0.00400541	0
2315.05	0.00932492	-0.00398013	0
2325.05	0.00930584	-0.00394848	0
2334.17	0.00940128	-0.00392161	0
2334.17	0.00932492	-0.00392976	0