File: EXPERIMENTAL/Data/Cell-cycling/E-measurements/C-cell/2024-04-25_E-measurements_sample-LiPF6-electrolyte-01_C-cell_Cu-Li-Cellgard2400-separator_25muL-LiPF6_outside-glovebox_sigma-0.02_added-OCV-0.1s_02_MB_C02.txt
time/s	Ewe/V	I/mA	error
60.053	3.24005	-0.0250311	0
60.1738	0.00937041	-13.7756	0
60.1748	0.00935132	-13.6655	0
60.1758	0.00948494	-13.5497	0
60.177	0.00927497	-13.4243	0
60.1782	0.00942767	-13.2868	0
60.1792	0.00927497	-13.1742	0
60.1804	0.0093895	-13.0584	0
60.1816	0.00937041	-12.9362	0
60.1828	0.00940858	-12.807	0
60.184	0.00940858	-12.6925	0
60.1854	0.00940858	-12.5499	0
60.1866	0.00944676	-12.4296	0
60.1878	0.0093895	-12.3183	0
60.189	0.0093895	-12.2056	0
60.1902	0.00948494	-12.0873	0
60.1914	0.00959947	-11.9772	0
60.1926	0.00944676	-11.8722	0
60.194	0.0093895	-11.7449	0
60.1954	0.00937041	-11.6208	0
60.1966	0.00948494	-11.5113	0
60.198	0.00942767	-11.3955	0
60.1994	0.00940858	-11.2752	0
60.2006	0.00950403	-11.1741	0
60.202	0.0093895	-11.057	0
60.2034	0.0093895	-10.943	0
60.2048	0.00950403	-10.8342	0
60.2062	0.0093895	-10.7279	0
60.2078	0.00940858	-10.5943	0
60.2094	0.00933223	-10.4728	0
60.211	0.00940858	-10.3576	0
60.2124	0.00942767	-10.2507	0
60.214	0.0093895	-10.1374	0
60.2156	0.00946585	-10.0146	0
60.2174	0.00933223	-9.89429	0
60.219	0.0093895	-9.78165	0
60.2206	0.00944676	-9.66901	0
60.2226	0.00946585	-9.54491	0
60.2242	0.00940858	-9.43864	0
60.2258	0.00940858	-9.33682	0
60.2276	0.0093895	-9.23181	0
60.2296	0.0093895	-9.10836	0
60.2312	0.00944676	-9.00335	0
60.2334	0.00942767	-8.87799	0
60.2354	0.00942767	-8.76598	0
60.2374	0.00933223	-8.65334	0
60.2394	0.00937041	-8.54261	0
60.2416	0.0093895	-8.42806	0
60.2436	0.00946585	-8.32115	0
60.246	0.00946585	-8.20788	0
60.2484	0.00942767	-8.08506	0
60.2506	0.00942767	-7.97687	0
60.253	0.00937041	-7.86996	0
60.2554	0.0095422	-7.75732	0
60.2582	0.00950403	-7.62877	0
60.2608	0.00942767	-7.51677	0
60.2634	0.00933223	-7.39904	0
60.2664	0.0093895	-7.28258	0
60.2692	0.00940858	-7.17376	0
60.2718	0.00950403	-7.06939	0
60.2746	0.00927497	-6.9663	0
60.2772	0.00940858	-6.8632	0
60.2802	0.00935132	-6.75884	0
60.2832	0.00944676	-6.65065	0
60.2866	0.00940858	-6.53674	0
60.2902	0.00942767	-6.42219	0
60.2936	0.00950403	-6.3121	0
60.2974	0.00935132	-6.20264	0
60.301	0.00935132	-6.09127	0
60.305	0.00940858	-5.98181	0
60.3086	0.00940858	-5.87999	0
60.3128	0.00944676	-5.77181	0
60.317	0.00935132	-5.66299	0
60.3214	0.00931314	-5.55544	0
60.3258	0.00935132	-5.44662	0
60.3306	0.00937041	-5.33461	0
60.336	0.00937041	-5.21943	0
60.3414	0.00946585	-5.11252	0
60.3466	0.00944676	-5.00879	0
60.3522	0.00937041	-4.90251	0
60.358	0.0093895	-4.80069	0
60.3648	0.00927497	-4.68423	0
60.371	0.00944676	-4.57859	0
60.3782	0.00942767	-4.47041	0
60.3854	0.0093895	-4.36668	0
60.393	0.00942767	-4.26295	0
60.402	0.0093895	-4.14649	0
60.4104	0.00937041	-4.03639	0
60.4194	0.00935132	-3.93585	0
60.4282	0.0093895	-3.83403	0
60.4388	0.00942767	-3.72902	0
60.4492	0.00935132	-3.62084	0
60.4616	0.00935132	-3.51329	0
60.5036	0.00929405	-3.2031	0
60.5184	0.00940858	-3.10041	0
60.5342	0.00942767	-2.99912	0
60.551	0.0093895	-2.89789	0
60.5694	0.00946585	-2.79743	0
60.5894	0.00940858	-2.69575	0
60.6108	0.00940858	-2.59561	0
60.6344	0.00937041	-2.49476	0
60.6608	0.00937041	-2.3922	0
60.6896	0.00946585	-2.29117	0
60.7222	0.00937041	-2.1893	0
60.758	0.00935132	-2.08897	0
60.799	0.0093895	-1.98698	0
60.8456	0.00929405	-1.88651	0
60.8984	0.00940858	-1.78637	0
60.9594	0.00942767	-1.68565	0
61.0318	0.00942767	-1.58532	0
61.1176	0.00940858	-1.48523	0
61.2202	0.00937041	-1.38503	0
61.3466	0.00944676	-1.28482	0
61.5046	0.00942767	-1.18461	0
61.7056	0.00944676	-1.08421	0
61.969	0.00931314	-0.984063	0
62.3192	0.00929405	-0.883727	0
62.8128	0.00946585	-0.782819	0
63.5218	0.00940858	-0.68261	0
64.5904	0.00935132	-0.582338	0
65.0534	0.00942767	-0.551989	0
67.0258	0.00946585	-0.451971	0
70.6844	0.00933223	-0.35193	0
77.7684	0.00942767	-0.251856	0
93.6894	0.00933223	-0.151826	0
113.689	0.00937041	-0.0986405	0
133.689	0.00931314	-0.0731397	0
153.689	0.00929405	-0.0580085	0
173.689	0.00942767	-0.047989	0
193.689	0.00950403	-0.0409397	0
213.689	0.00946585	-0.0355061	0
233.689	0.0093895	-0.0314221	0
253.689	0.00933223	-0.0279337	0
273.689	0.00937041	-0.0252617	0
293.689	0.00929405	-0.0227208	0
313.689	0.00929405	-0.0208945	0
333.689	0.00937041	-0.0191885	0
353.689	0.00937041	-0.0177275	0
373.689	0.00944676	-0.0163428	0
393.689	0.0093895	-0.0152305	0
413.689	0.0093895	-0.0142194	0
433.689	0.00940858	-0.0133546	0
453.689	0.00940858	-0.0125115	0
473.689	0.00944676	-0.0119661	0
493.689	0.00927497	-0.0111071	0
513.689	0.00933223	-0.0105299	0
533.689	0.00937041	-0.0100081	0
553.689	0.00933223	-0.00952068	0
573.689	0.00935132	-0.00901415	0
593.689	0.00935132	-0.00852099	0
613.689	0.00937041	-0.00822955	0
633.689	0.0093895	-0.00781593	0
653.689	0.00937041	-0.00753913	0
673.689	0.0093895	-0.00726805	0
693.689	0.00933223	-0.00683471	0
713.689	0.0093895	-0.00668644	0
733.689	0.00944676	-0.00646436	0
753.689	0.00933223	-0.00618755	0
773.689	0.00935132	-0.00628237	0
793.689	0.00940858	-0.00578539	0
813.689	0.00931314	-0.00562758	0
833.689	0.00935132	-0.00542586	0
853.689	0.00937041	-0.00521269	0
873.689	0.00937041	-0.0050256	0
893.689	0.0093895	-0.00489452	0
913.689	0.0093895	-0.00477807	0
933.689	0.00944676	-0.00454072	0
953.689	0.00935132	-0.00457635	0
973.689	0.00948494	-0.00438989	0
993.689	0.00933223	-0.00426483	0
1013.69	0.00929405	-0.00416537	0
1033.69	0.00944676	-0.00405425	0
1053.69	0.00937041	-0.00394326	0
1054.31	0.0092177	-0.00390977	0