File: EXPERIMENTAL/Data/Cell-cycling/E-measurements/C-cell/2024-05-01_E-measurements_sample-LiPF6-02_C-cell_Cu-Li_Cellgard2400_25muL-LiPF6-electrolyte_outside-glovebox_sigma-0.02_added-OCV-0.1s_02_MB_C01.txt
time/s	Ewe/V	I/mA	error
60.053	2.6651	-0.0250252	0
60.1732	0.00947588	-9.34611	0
60.1738	0.00928497	-9.27861	0
60.1744	0.00947588	-9.2111	0
60.175	0.00939951	-9.14614	0
60.1756	0.0094377	-9.07482	0
60.1762	0.00949497	-9.01113	0
60.1768	0.00947588	-8.94426	0
60.1774	0.00936133	-8.88503	0
60.178	0.00932315	-8.81243	0
60.1786	0.00939951	-8.75575	0
60.1792	0.0094186	-8.69016	0
60.18	0.0094377	-8.61437	0
60.1806	0.0094377	-8.54941	0
60.1812	0.0094377	-8.49146	0
60.1818	0.00936133	-8.44051	0
60.1824	0.00947588	-8.38702	0
60.183	0.00934224	-8.32843	0
60.1836	0.00947588	-8.27812	0
60.1842	0.00936133	-8.21889	0
60.1848	0.00947588	-8.16476	0
60.1856	0.0094377	-8.09789	0
60.1862	0.00953315	-8.04312	0
60.187	0.00953315	-7.98262	0
60.1876	0.00949497	-7.92976	0
60.1884	0.00932315	-7.86544	0
60.1892	0.00936133	-7.80303	0
60.19	0.00955224	-7.74635	0
60.1908	0.0094377	-7.68012	0
60.1916	0.0094186	-7.62535	0
60.1924	0.00947588	-7.56739	0
60.1932	0.00947588	-7.50817	0
60.194	0.00932315	-7.45212	0
60.1948	0.00934224	-7.40054	0
60.1956	0.0094186	-7.34895	0
60.1964	0.00947588	-7.29164	0
60.1974	0.00932315	-7.23305	0
60.1982	0.00957133	-7.1821	0
60.1992	0.00939951	-7.11969	0
60.2002	0.00949497	-7.05791	0
60.2014	0.00945679	-6.98977	0
60.2024	0.00932315	-6.93373	0
60.2034	0.0094377	-6.87769	0
60.2044	0.00947588	-6.82164	0
60.2056	0.0094377	-6.76496	0
60.2066	0.00947588	-6.71083	0
60.2076	0.00938042	-6.65797	0
60.2086	0.00938042	-6.60766	0
60.2098	0.00951406	-6.55162	0
60.211	0.00951406	-6.48857	0
60.2122	0.0094186	-6.43444	0
60.2134	0.0094377	-6.37903	0
60.2146	0.00934224	-6.32808	0
60.2158	0.00934224	-6.27523	0
60.217	0.00947588	-6.22237	0
60.2184	0.0094377	-6.16569	0
60.2198	0.00939951	-6.10837	0
60.2212	0.00934224	-6.04787	0
60.2224	0.0094186	-5.99756	0
60.224	0.00949497	-5.94343	0
60.2254	0.00955224	-5.88611	0
60.227	0.0094186	-5.82943	0
60.2286	0.00945679	-5.77403	0
60.23	0.00945679	-5.72053	0
60.2318	0.00939951	-5.66258	0
60.2334	0.0094186	-5.60781	0
60.235	0.00955224	-5.55113	0
60.2368	0.0094377	-5.49955	0
60.2384	0.00945679	-5.43586	0
60.2402	0.00951406	-5.38491	0
60.2422	0.00953315	-5.32951	0
60.2436	0.00947588	-5.27919	0
60.2456	0.0094377	-5.22888	0
60.2474	0.00939951	-5.17157	0
60.2492	0.00938042	-5.12126	0
60.2512	0.00936133	-5.06712	0
60.253	0.0094377	-5.01554	0
60.255	0.0094186	-4.95759	0
60.2572	0.00947588	-4.90409	0
60.2592	0.00947588	-4.8506	0
60.2616	0.00953315	-4.7971	0
60.2638	0.00938042	-4.74361	0
60.266	0.0094377	-4.69329	0
60.268	0.0094186	-4.64298	0
60.2702	0.00945679	-4.58821	0
60.2728	0.0094377	-4.53472	0
60.2752	0.0094377	-4.48186	0
60.2776	0.00936133	-4.42964	0
60.2804	0.00939951	-4.36341	0
60.2838	0.00932315	-4.30545	0
60.2864	0.00934224	-4.25514	0
60.289	0.0094377	-4.20419	0
60.292	0.00932315	-4.15261	0
60.2944	0.00945679	-4.10166	0
60.2976	0.00938042	-4.04689	0
60.3006	0.00939951	-3.99212	0
60.3038	0.0094186	-3.93481	0
60.3074	0.00934224	-3.87813	0
60.311	0.0094377	-3.82399	0
60.3144	0.00939951	-3.76859	0
60.318	0.00947588	-3.71573	0
60.3216	0.0094377	-3.66415	0
60.3254	0.00936133	-3.61256	0
60.329	0.00936133	-3.55524	0
60.333	0.0094186	-3.50493	0
60.337	0.0094186	-3.45462	0
60.3416	0.00947588	-3.40304	0
60.3452	0.0094377	-3.35209	0
60.35	0.00934224	-3.29859	0
60.3548	0.00949497	-3.24191	0
60.3592	0.00949497	-3.1916	0
60.3648	0.00939951	-3.13683	0
60.3702	0.0094186	-3.0827	0
60.4034	0.0094377	-2.80554	0
60.41	0.00945679	-2.755	0
60.4168	0.00939951	-2.7047	0
60.424	0.00945679	-2.65371	0
60.4316	0.00928497	-2.60291	0
60.4396	0.00936133	-2.55268	0
60.4478	0.00945679	-2.5022	0
60.4566	0.00953315	-2.45095	0
60.4658	0.00953315	-2.4004	0
60.4754	0.00939951	-2.3496	0
60.4856	0.0094377	-2.29924	0
60.4964	0.00947588	-2.24819	0
60.5078	0.00939951	-2.19764	0
60.5198	0.00939951	-2.14626	0
60.5328	0.00951406	-2.09616	0
60.5462	0.0094377	-2.04472	0
60.5606	0.0094186	-1.99417	0
60.576	0.00945679	-1.94407	0
60.5922	0.00939951	-1.89391	0
60.6094	0.0094377	-1.84387	0
60.6278	0.0094186	-1.79332	0
60.648	0.00955224	-1.74284	0
60.6692	0.0094186	-1.69255	0
60.6924	0.0094377	-1.64225	0
60.7174	0.00938042	-1.59101	0
60.745	0.00945679	-1.54001	0
60.7746	0.00945679	-1.48934	0
60.807	0.00945679	-1.4393	0
60.8414	0.00939951	-1.3892	0
60.8806	0.00945679	-1.3391	0
60.9232	0.00938042	-1.28899	0
60.97	0.00938042	-1.23857	0
61.0232	0.0094377	-1.18841	0
61.0822	0.00947588	-1.13805	0
61.1486	0.0094377	-1.08795	0
61.2252	0.00938042	-1.03759	0
61.3114	0.00947588	-0.987492	0
61.411	0.00945679	-0.93739	0
61.5256	0.00947588	-0.887225	0
61.661	0.00939951	-0.83706	0
61.8228	0.0094377	-0.787021	0
62.0176	0.00945679	-0.736792	0
62.2554	0.00947588	-0.686754	0
62.5504	0.00945679	-0.636589	0
62.923	0.00945679	-0.586105	0
63.4218	0.0094377	-0.535876	0
64.071	0.00938042	-0.485774	0
65.0056	0.00949497	-0.43574	0
65.0528	0.00938042	-0.434504	0
65.0534	0.00938042	-0.43339	0
66.351	0.00939951	-0.383262	0
68.2526	0.00949497	-0.333171	0
71.1522	0.00939951	-0.283164	0
75.884	0.00947588	-0.233092	0
83.6026	0.00949497	-0.1829	0
93.6026	0.0094377	-0.142392	0
103.603	0.0094186	-0.116421	0
113.603	0.0094186	-0.0990319	0
123.603	0.00945679	-0.0856927	0
133.603	0.00938042	-0.0754288	0
143.603	0.0094377	-0.0671579	0
153.603	0.0094377	-0.0605552	0
163.603	0.00949497	-0.0542835	0
173.603	0.00947588	-0.0498902	0
183.603	0.0094377	-0.0458598	0
193.603	0.00951406	-0.0421979	0
203.603	0.00947588	-0.0390975	0
213.603	0.00939951	-0.0362141	0
223.603	0.00939951	-0.0337808	0
233.603	0.0094186	-0.0314671	0
243.603	0.0094377	-0.0295398	0
253.603	0.00945679	-0.0277423	0
263.603	0.0094377	-0.026081	0
273.603	0.00945679	-0.0246272	0
283.603	0.0094377	-0.0232409	0
293.603	0.00934224	-0.0219953	0
303.603	0.0094377	-0.0208146	0
313.603	0.00945679	-0.0198026	0
323.603	0.00939951	-0.0189834	0
333.603	0.00939951	-0.0188803	0
343.603	0.00939951	-0.0173145	0
353.603	0.00951406	-0.0177772	0
363.603	0.00939951	-0.0159409	0
373.603	0.00936133	-0.015342	0
383.603	0.0094377	-0.0146533	0
393.603	0.00938042	-0.0140721	0
403.603	0.00945679	-0.0135604	0
413.603	0.00932315	-0.0130181	0
423.603	0.00939951	-0.0125884	0
433.603	0.0094377	-0.0121308	0
443.603	0.00936133	-0.0117483	0
453.603	0.0094377	-0.0113995	0
463.603	0.00947588	-0.0109934	0
473.603	0.00945679	-0.0107324	0
483.603	0.0094186	-0.0103747	0
493.603	0.0094186	-0.00988777	0
503.603	0.00959042	-0.00979548	0
513.603	0.0094186	-0.0094123	0
523.603	0.00947588	-0.0092029	0
533.603	0.00926588	-0.00905077	0
543.603	0.00949497	-0.0087217	0
553.603	0.00938042	-0.00835762	0
563.603	0.00949497	-0.00819913	0
573.603	0.00945679	-0.00799672	0
583.603	0.00949497	-0.00784587	0
593.603	0.0094186	-0.00767274	0
603.603	0.0094186	-0.00753972	0
613.603	0.00947588	-0.0073093	0
623.603	0.0094377	-0.00711008	0
633.603	0.0094377	-0.0069745	0
643.603	0.0094186	-0.00684402	0
653.603	0.00947588	-0.00668235	0
663.603	0.0094377	-0.00652959	0
673.603	0.0094377	-0.00643093	0
683.603	0.00939951	-0.00624189	0
693.603	0.00945679	-0.00613814	0
703.603	0.00947588	-0.0060363	0
713.603	0.0094186	-0.00577597	0
723.603	0.00939951	-0.00585553	0
733.603	0.00947588	-0.0056754	0
743.603	0.0094186	-0.0055411	0
753.603	0.00945679	-0.00542717	0
763.603	0.0094377	-0.0053266	0
773.603	0.00939951	-0.00522985	0
783.603	0.00936133	-0.00518848	0
793.603	0.00939951	-0.0051802	0
803.603	0.00945679	-0.00497207	0
813.603	0.00947588	-0.00492115	0
823.603	0.00953315	-0.00487277	0
833.603	0.0094186	-0.00471429	0
843.603	0.0094186	-0.00471556	0
853.603	0.0094377	-0.00457744	0
863.603	0.0094186	-0.00444186	0
873.603	0.00945679	-0.00449561	0
883.603	0.00939951	-0.00440827	0
893.603	0.00945679	-0.00433773	0
903.603	0.00939951	-0.00427903	0
913.603	0.0094377	-0.0042812	0
923.603	0.00934224	-0.00419162	0
933.603	0.0094186	-0.00410141	0
943.603	0.00928497	-0.00403476	0
953.603	0.0094186	-0.00398103	0
958.724	0.00939951	-0.00392412	0
958.724	0.0094377	-0.00393736	0