File: EXPERIMENTAL/Data/Cell-cycling/E-measurements/C-cell/2024-04-29_E-measurements_sample-Ionic-04_C-cell_Cu-Li_glassfiber-separator_25muL-ionic-electrolyte_outside-glovebox_sigma-0.02_added-OCV-0.1s_04_CP_C02.txt
time/s	Ewe/V	I/mA	error
1932.82	0.0014321	-0.194568	0
1932.82	-0.00319701	-0.195963	0
1932.82	-0.00623205	-0.195959	0
1932.82	-0.00854173	-0.195964	0
1932.82	-0.0113477	-0.195963	0
1932.82	-0.0141537	-0.195962	0
1932.82	-0.0165588	-0.195964	0
1932.83	-0.0191167	-0.195961	0
1932.83	-0.0216745	-0.195966	0
1932.83	-0.0239078	-0.195959	0
1932.83	-0.0262366	-0.195965	0
1932.83	-0.0284318	-0.195967	0
1932.83	-0.0305506	-0.195964	0
1932.83	-0.0329557	-0.195963	0
1932.83	-0.0351508	-0.195964	0
1932.84	-0.0375941	-0.195967	0
1932.84	-0.0401138	-0.195966	0
1932.84	-0.0425953	-0.195967	0
1932.84	-0.0447523	-0.195964	0
1932.84	-0.0471574	-0.195966	0
1932.84	-0.0496579	-0.195959	0
1932.85	-0.0520631	-0.195967	0
1932.85	-0.0542391	-0.195965	0
1932.85	-0.0565297	-0.195966	0
1932.85	-0.0589921	-0.195964	0
1932.85	-0.0612255	-0.195965	0
1932.85	-0.0636688	-0.195963	0
1932.86	-0.0660548	-0.195959	0
1932.86	-0.0682691	-0.195963	0
1932.86	-0.0705024	-0.195966	0
1932.86	-0.072793	-0.195965	0
1932.86	-0.0751218	-0.195966	0
1932.87	-0.0772978	-0.195964	0
1932.87	-0.0797984	-0.195969	0
1932.87	-0.0821463	-0.19597	0
1932.87	-0.0843605	-0.195959	0
1932.87	-0.0865747	-0.19596	0
1932.88	-0.0890944	-0.195966	0
1932.88	-0.0912514	-0.195966	0
1932.88	-0.0936565	-0.195969	0
1932.88	-0.0961571	-0.195966	0
1932.89	-0.0983522	-0.195966	0
1932.89	-0.100605	-0.195973	0
1932.89	-0.102762	-0.195969	0
1932.89	-0.10488	-0.195967	0
1932.9	-0.107076	-0.195966	0
1932.9	-0.109443	-0.195968	0
1932.9	-0.111695	-0.195962	0
1932.9	-0.113928	-0.195965	0
1932.91	-0.116219	-0.195963	0
1932.91	-0.118586	-0.195971	0
1932.91	-0.1208	-0.195959	0
1932.92	-0.122957	-0.195963	0
1932.92	-0.125057	-0.195965	0
1932.92	-0.127137	-0.195962	0
1932.93	-0.129409	-0.195964	0
1932.93	-0.13149	-0.195964	0
1932.93	-0.133666	-0.195964	0
1932.94	-0.135823	-0.195971	0
1932.94	-0.13796	-0.195964	0
1932.94	-0.140079	-0.19597	0
1932.95	-0.142294	-0.195968	0
1932.95	-0.144393	-0.195962	0
1932.96	-0.146741	-0.195964	0
1932.96	-0.148841	-0.195963	0
1932.96	-0.151036	-0.195963	0
1932.97	-0.153117	-0.195967	0
1932.97	-0.155159	-0.195965	0
1932.98	-0.15745	-0.195964	0
1932.98	-0.159568	-0.195964	0
1932.99	-0.161744	-0.19597	0
1932.99	-0.163901	-0.195963	0
1933	-0.166001	-0.195971	0
1933.01	-0.168082	-0.195959	0
1933.01	-0.17022	-0.195972	0
1933.02	-0.1723	-0.195965	0
1933.03	-0.174419	-0.195964	0
1933.03	-0.176462	-0.195968	0
1933.04	-0.178599	-0.195958	0
1933.05	-0.180795	-0.195971	0
1933.06	-0.182837	-0.195966	0
1933.08	-0.185032	-0.19597	0
1933.09	-0.187094	-0.195957	0
1933.12	-0.189155	-0.195963	0
1933.17	-0.187094	-0.195969	0
1933.19	-0.184975	-0.195966	0
1933.2	-0.182856	-0.195967	0
1933.21	-0.180814	-0.195968	0
1933.22	-0.178619	-0.195965	0
1933.23	-0.1765	-0.195966	0
1933.24	-0.174362	-0.195963	0
1933.25	-0.172052	-0.195967	0
1933.26	-0.169972	-0.195966	0
1933.27	-0.167834	-0.195967	0
1933.27	-0.165677	-0.195963	0
1933.28	-0.163596	-0.195966	0
1933.29	-0.161344	-0.195964	0
1933.3	-0.159301	-0.195963	0
1933.31	-0.157182	-0.195966	0
1933.32	-0.155102	-0.195966	0
1933.33	-0.152983	-0.195966	0
1933.34	-0.150807	-0.195965	0
1933.35	-0.148726	-0.195962	0
1933.36	-0.146607	-0.195961	0
1933.37	-0.144546	-0.195966	0
1933.38	-0.142484	-0.195963	0
1933.39	-0.140404	-0.19597	0
1933.4	-0.138266	-0.195968	0
1933.42	-0.136185	-0.195963	0
1933.43	-0.134124	-0.195957	0
1933.45	-0.132081	-0.195967	0
1933.47	-0.130039	-0.195968	0
1933.49	-0.128015	-0.195968	0
1933.52	-0.125992	-0.195968	0
1933.55	-0.123931	-0.195964	0
1933.59	-0.121888	-0.195966	0
1933.64	-0.119827	-0.195968	0
1933.7	-0.117803	-0.19597	0
1933.79	-0.115761	-0.195964	0
1933.93	-0.113623	-0.195963	0
1934.21	-0.111523	-0.195966	0
1937.82	-0.111504	-0.195974	0
1940.41	-0.113527	-0.195969	0
1943.05	-0.115551	-0.195968	0
1946.11	-0.117574	-0.195965	0
1949.28	-0.119617	-0.195968	0
1953.21	-0.121697	-0.195962	0
1957.52	-0.123759	-0.19597	0
1962.45	-0.125839	-0.195968	0
1968.19	-0.127901	-0.195968	0
1974.43	-0.129924	-0.195969	0
1982.22	-0.132005	-0.195969	0
1991.22	-0.134086	-0.195973	0
2002.74	-0.136166	-0.195973	0
2016.81	-0.138228	-0.195968	0
2032.69	-0.140251	-0.195967	0
2049.8	-0.142294	-0.19597	0
2068.6	-0.144336	-0.195971	0
2086	-0.146016	-0.195971	0
2106	-0.147466	-0.19597	0
2125.68	-0.148974	-0.195975	0
2145.68	-0.150292	-0.195968	0
2165.68	-0.151322	-0.195974	0
2185.68	-0.15241	-0.195968	0
2205.68	-0.153136	-0.195971	0
2225.68	-0.153842	-0.195972	0
2245.68	-0.154033	-0.195977	0
2265.68	-0.154586	-0.195965	0
2285.68	-0.154911	-0.195969	0
2305.68	-0.155121	-0.195971	0
2325.68	-0.155178	-0.195967	0
2345.68	-0.155274	-0.195968	0
2365.68	-0.155216	-0.19597	0
2385.68	-0.155121	-0.195963	0
2405.68	-0.155045	-0.195966	0
2425.68	-0.154777	-0.19597	0
2445.68	-0.154625	-0.195972	0
2465.68	-0.154338	-0.195968	0
2485.68	-0.15409	-0.195964	0
2505.68	-0.153727	-0.195967	0
2525.68	-0.153517	-0.195965	0
2545.68	-0.153269	-0.195974	0
2565.68	-0.152735	-0.195973	0
2585.68	-0.152448	-0.19597	0
2605.68	-0.151914	-0.195975	0
2625.68	-0.151513	-0.195969	0
2645.68	-0.15117	-0.195972	0
2665.68	-0.150673	-0.195971	0
2685.68	-0.150387	-0.195967	0
2705.68	-0.14991	-0.195973	0
2725.68	-0.149681	-0.195971	0
2745.68	-0.149242	-0.195971	0
2765.68	-0.148764	-0.195974	0
2785.68	-0.148344	-0.19597	0
2805.68	-0.14802	-0.195969	0
2825.68	-0.147505	-0.195963	0
2845.68	-0.147295	-0.195968	0
2865.68	-0.146817	-0.195971	0
2885.68	-0.146398	-0.19597	0
2905.68	-0.145958	-0.195975	0
2925.68	-0.145615	-0.195971	0
2945.68	-0.145233	-0.195977	0
2965.68	-0.144756	-0.195972	0
2985.68	-0.144508	-0.195966	0
3005.68	-0.144069	-0.19597	0
3025.68	-0.143744	-0.195973	0
3045.68	-0.143305	-0.195963	0
3065.68	-0.142923	-0.195973	0
3085.68	-0.142561	-0.195972	0
3105.68	-0.142198	-0.195974	0
3125.68	-0.141854	-0.195972	0
3145.68	-0.141473	-0.195968	0
3165.68	-0.141186	-0.19597	0
3185.68	-0.140957	-0.195968	0
3205.68	-0.140595	-0.195972	0
3225.68	-0.140213	-0.195964	0
3245.68	-0.139888	-0.195975	0
3265.68	-0.139526	-0.195966	0
3285.68	-0.139201	-0.19597	0
3305.68	-0.13901	-0.195965	0
3325.68	-0.138629	-0.195972	0
3345.68	-0.138342	-0.195971	0
3365.68	-0.138037	-0.195964	0
3385.68	-0.137674	-0.195966	0
3405.68	-0.137369	-0.195968	0
3425.68	-0.137197	-0.195965	0
3445.68	-0.136815	-0.195969	0
3465.68	-0.136548	-0.195973	0
3485.68	-0.136376	-0.195972	0
3505.68	-0.136052	-0.195973	0
3525.68	-0.135784	-0.195968	0
3545.68	-0.135574	-0.195971	0
3565.68	-0.135212	-0.19597	0
3585.68	-0.135097	-0.19597	0
3605.68	-0.134906	-0.19597	0
3625.68	-0.134582	-0.195972	0
3645.68	-0.134296	-0.19597	0
3665.68	-0.134162	-0.195972	0
3685.68	-0.133876	-0.195976	0
3705.68	-0.133608	-0.195973	0
3725.68	-0.133398	-0.195966	0
3732.82	-0.133112	-0.195974	0