File: EXPERIMENTAL/Data/Cell-cycling/E-measurements/C-cell/2024-04-29_E-measurements_sample-Ionic-03_C-cell_Cu-Li_glassfiber-separator_25muL-ionic-electrolyte_outside-glovebox_sigma-0.02_added-OCV-0.1s_02_MB_C01.txt
time/s	Ewe/V	I/mA	error
60.053	2.72273	-0.0250252	0
60.1438	0.00947588	-10.3001	0
60.145	0.0094186	-10.1815	0
60.1462	0.00945679	-10.0656	0
60.1474	0.0094377	-9.95023	0
60.1486	0.00936133	-9.8373	0
60.1498	0.0094186	-9.72551	0
60.151	0.00938042	-9.6148	0
60.1522	0.00949497	-9.50549	0
60.1534	0.0094377	-9.3981	0
60.1546	0.00938042	-9.29197	0
60.1558	0.0094377	-9.18572	0
60.157	0.00939951	-9.08246	0
60.1582	0.0094186	-8.98009	0
60.1594	0.00939951	-8.87893	0
60.161	0.0094186	-8.74671	0
60.1624	0.00949497	-8.63174	0
60.164	0.00939951	-8.50384	0
60.1656	0.0094186	-8.37747	0
60.1672	0.00949497	-8.25384	0
60.1688	0.00930406	-8.13377	0
60.1704	0.00951406	-8.01479	0
60.172	0.00934224	-7.89956	0
60.1736	0.00938042	-7.78548	0
60.1752	0.0094186	-7.67528	0
60.1768	0.0094377	-7.56718	0
60.1784	0.00930406	-7.46119	0
60.18	0.00934224	-7.3571	0
60.1818	0.00938042	-7.24366	0
60.1838	0.0094377	-7.12079	0
60.1858	0.00939951	-7.00161	0
60.1878	0.0094186	-6.88499	0
60.1898	0.00934224	-6.77339	0
60.1918	0.00934224	-6.66325	0
60.1938	0.00939951	-6.55668	0
60.1958	0.00945679	-6.45317	0
60.1978	0.0094377	-6.35137	0
60.2002	0.00945679	-6.23443	0
60.2026	0.00939951	-6.11926	0
60.205	0.0094186	-6.009	0
60.2074	0.0094186	-5.90001	0
60.2098	0.00939951	-5.79503	0
60.2122	0.00939951	-5.69247	0
60.2148	0.00945679	-5.58482	0
60.2176	0.00939951	-5.47195	0
60.2204	0.00938042	-5.36226	0
60.2232	0.00936133	-5.25544	0
60.226	0.00945679	-5.15148	0
60.229	0.0094377	-5.04434	0
60.232	0.00936133	-4.93853	0
60.2352	0.0094186	-4.8312	0
60.2384	0.0094186	-4.72609	0
60.2416	0.00938042	-4.62436	0
60.2452	0.00939951	-4.51454	0
60.2488	0.00938042	-4.40893	0
60.2526	0.0094186	-4.30325	0
60.2566	0.0094377	-4.19617	0
60.2606	0.00939951	-4.0945	0
60.265	0.00947588	-3.9878	0
60.2698	0.00939951	-3.87964	0
60.2746	0.00945679	-3.77696	0
60.2798	0.00932315	-3.67332	0
60.2856	0.00949497	-3.56668	0
60.2916	0.00938042	-3.46381	0
60.2982	0.0094377	-3.3601	0
60.3054	0.00947588	-3.25627	0
60.3132	0.00934224	-3.15384	0
60.3218	0.00936133	-3.05039	0
60.3312	0.0094186	-2.94757	0
60.3412	0.00938042	-2.84641	0
60.3522	0.00945679	-2.74449	0
60.3644	0.00951406	-2.64149	0
60.3774	0.0094186	-2.53956	0
60.3916	0.00953315	-2.43796	0
60.4068	0.00938042	-2.3361	0
60.4232	0.00949497	-2.23475	0
60.4412	0.0094377	-2.13264	0
60.4606	0.00949497	-2.03065	0
60.4816	0.00949497	-1.93	0
60.5044	0.00945679	-1.82853	0
60.5294	0.00947588	-1.72794	0
60.557	0.00947588	-1.62685	0
60.588	0.00930406	-1.52582	0
60.6226	0.0094186	-1.4251	0
60.662	0.00945679	-1.32433	0
60.7078	0.0094377	-1.22285	0
60.7614	0.00936133	-1.12195	0
60.8246	0.00945679	-1.02136	0
60.903	0.00947588	-0.921029	0
61.0026	0.0094377	-0.819807	0
61.1334	0.00934224	-0.71954	0
61.3148	0.0094377	-0.619336	0
61.582	0.0094186	-0.519133	0
62.0094	0.00936133	-0.418924	0
62.7628	0.00951406	-0.318788	0
64.4436	0.00953315	-0.218734	0
65.0534	0.00949497	-0.198907	0
72.9966	0.00947588	-0.0988472	0
92.9966	0.00939951	-0.0463437	0
112.997	0.00939951	-0.031651	0
132.997	0.00930406	-0.0247418	0
152.997	0.00951406	-0.0207268	0
172.997	0.00934224	-0.0181597	0
192.997	0.00945679	-0.0162477	0
212.997	0.00932315	-0.0148958	0
232.997	0.00936133	-0.0136641	0
252.997	0.00951406	-0.0127819	0
272.997	0.00955224	-0.0119984	0
292.997	0.0094186	-0.0114173	0
312.997	0.0094377	-0.0108253	0
332.997	0.00938042	-0.0103543	0
352.997	0.00957133	-0.00987186	0
372.997	0.0094377	-0.00955106	0
392.997	0.0094377	-0.00919717	0
412.997	0.0094186	-0.00884773	0
432.997	0.0094377	-0.00852629	0
452.997	0.0094186	-0.00827933	0
472.997	0.00926588	-0.00803428	0
492.997	0.0094377	-0.00783442	0
512.997	0.00939951	-0.00755817	0
532.997	0.00951406	-0.00735449	0
552.997	0.0094186	-0.00720428	0
572.997	0.00947588	-0.00702606	0
592.997	0.0094377	-0.00687075	0
612.997	0.0094377	-0.00672499	0
632.997	0.00947588	-0.00657032	0
652.997	0.00939951	-0.00646276	0
672.997	0.00949497	-0.0062438	0
692.997	0.00947588	-0.00613432	0
712.997	0.0094186	-0.0060573	0
732.997	0.00953315	-0.00593319	0
752.997	0.0094186	-0.00583071	0
772.997	0.00938042	-0.00569704	0
792.997	0.00930406	-0.00562003	0
812.997	0.0094377	-0.00554619	0
832.997	0.00939951	-0.00546536	0
852.997	0.00939951	-0.00535206	0
872.997	0.00945679	-0.00524258	0
892.997	0.00951406	-0.00516302	0
912.997	0.0094186	-0.00509937	0
932.997	0.0094377	-0.00504718	0
952.997	0.0094186	-0.00494024	0
972.997	0.0094377	-0.0048715	0
992.997	0.00938042	-0.00475629	0
1013	0.00939951	-0.00475184	0
1033	0.00939951	-0.00467546	0
1053	0.00949497	-0.00462263	0
1073	0.0094377	-0.00452843	0
1093	0.00934224	-0.00449122	0
1113	0.0094186	-0.00443042	0
1133	0.00936133	-0.00437166	0
1153	0.0094186	-0.00430736	0
1173	0.0094186	-0.00426611	0
1193	0.0094377	-0.00420639	0
1213	0.00938042	-0.00416597	0
1233	0.00938042	-0.00410651	0
1253	0.0094186	-0.00406003	0
1273	0.00930406	-0.00403355	0
1293	0.0094186	-0.0040084	0
1309.34	0.00947588	-0.0039096	0
1309.34	0.00936133	-0.00392844	0