File: EXPERIMENTAL/Data/Cell-cycling/E-measurements/C-cell/2024-04-25_E-measurements_sample-LiFSI-electrolyte-01_C-cell_Cu-Li-Cellgard2400-separator_25muL-LiFSI-in-DME_outside-glovebox_sigma-0.02_added-OCV-0.1s_02_MB_C02.txt
time/s	Ewe/V	I/mA	error
60.053	2.55262	-0.0250311	0
60.1736	0.00940858	-10.9106	0
60.1744	0.00937041	-10.7859	0
60.1752	0.00929405	-10.6675	0
60.176	0.00927497	-10.5472	0
60.1768	0.00937041	-10.4403	0
60.1776	0.00956129	-10.3258	0
60.1786	0.00940858	-10.194	0
60.1796	0.00933223	-10.0515	0
60.1806	0.00940858	-9.92165	0
60.1814	0.0093895	-9.81729	0
60.1824	0.0093895	-9.69637	0
60.1836	0.00942767	-9.55064	0
60.1848	0.00946585	-9.403	0
60.186	0.00942767	-9.26236	0
60.1872	0.00925588	-9.12999	0
60.1884	0.00937041	-8.99572	0
60.1896	0.00935132	-8.86717	0
60.1908	0.00946585	-8.73544	0
60.192	0.0093895	-8.61261	0
60.1932	0.00931314	-8.48916	0
60.1946	0.00929405	-8.36252	0
60.1958	0.00940858	-8.24797	0
60.1972	0.00935132	-8.12578	0
60.1984	0.00937041	-8.00805	0
60.1996	0.00940858	-7.9005	0
60.2012	0.00935132	-7.7675	0
60.2028	0.0093895	-7.63641	0
60.2044	0.0093895	-7.49577	0
60.2062	0.00940858	-7.3704	0
60.2076	0.00940858	-7.26158	0
60.2092	0.00931314	-7.14766	0
60.2108	0.00937041	-7.02993	0
60.2124	0.00944676	-6.91857	0
60.214	0.00935132	-6.8072	0
60.2156	0.00929405	-6.70347	0
60.2174	0.00948494	-6.58383	0
60.2194	0.00942767	-6.46483	0
60.2212	0.00935132	-6.35664	0
60.2232	0.0093895	-6.24018	0
60.2254	0.00940858	-6.11673	0
60.2274	0.00929405	-6.00727	0
60.2296	0.00937041	-5.89272	0
60.232	0.00927497	-5.77308	0
60.2342	0.00940858	-5.66617	0
60.2366	0.00931314	-5.55416	0
60.239	0.00931314	-5.44343	0
60.2416	0.00940858	-5.33143	0
60.2444	0.00940858	-5.21943	0
60.247	0.00929405	-5.11315	0
60.2498	0.00942767	-5.00115	0
60.2532	0.00944676	-4.88087	0
60.2564	0.0093895	-4.76632	0
60.2594	0.00940858	-4.66069	0
60.2628	0.00942767	-4.54995	0
60.2662	0.00933223	-4.44813	0
60.2698	0.00952311	-4.34504	0
60.273	0.00933223	-4.4012	0
60.306	0.00940858	-3.51823	0
60.3116	0.00937041	-3.41522	0
60.3178	0.00929405	-3.30916	0
60.3242	0.0093895	-3.20653	0
60.3312	0.00946585	-3.10117	0
60.3386	0.00927497	-2.99746	0
60.3464	0.00942767	-2.89547	0
60.3548	0.00940858	-2.79285	0
60.364	0.00940858	-2.68907	0
60.374	0.00948494	-2.58575	0
60.3846	0.00940858	-2.48408	0
60.3964	0.00933223	-2.38043	0
60.409	0.00937041	-2.27908	0
60.423	0.00942767	-2.17715	0
60.4382	0.00940858	-2.07599	0
60.4552	0.00946585	-1.97508	0
60.474	0.00944676	-1.87322	0
60.4952	0.0093895	-1.77205	0
60.519	0.00946585	-1.67146	0
60.5464	0.0092177	-1.57055	0
60.578	0.00937041	-1.46882	0
60.6146	0.00946585	-1.36734	0
60.658	0.00931314	-1.2663	0
60.7096	0.00944676	-1.16616	0
60.7726	0.00944676	-1.0655	0
60.8512	0.00937041	-0.965358	0
60.9518	0.00931314	-0.864576	0
61.087	0.00940858	-0.763668	0
61.2728	0.00933223	-0.663078	0
61.5422	0.00940858	-0.562551	0
61.9614	0.00935132	-0.462469	0
62.7206	0.0093895	-0.362306	0
64.2918	0.0093895	-0.262225	0
65.0534	0.00944676	-0.235298	0
72.4614	0.00937041	-0.135281	0
92.4614	0.00944676	-0.0767044	0
112.461	0.00933223	-0.0529287	0
132.461	0.00935132	-0.0414234	0
152.461	0.0093895	-0.0342302	0
172.461	0.00940858	-0.0293718	0
192.461	0.00927497	-0.0258	0
212.461	0.00927497	-0.0230886	0
232.461	0.00933223	-0.0209518	0
252.461	0.0093895	-0.019144	0
272.461	0.00933223	-0.0177886	0
292.461	0.00929405	-0.0165121	0
312.461	0.00946585	-0.0153947	0
332.461	0.00942767	-0.014514	0
352.461	0.0093895	-0.01373	0
372.461	0.00931314	-0.0130606	0
392.461	0.00937041	-0.0124275	0
412.461	0.00929405	-0.0118974	0
432.461	0.00940858	-0.0113088	0
452.461	0.00931314	-0.0108735	0
472.461	0.00935132	-0.0103759	0
492.461	0.00935132	-0.00997057	0
512.461	0.00935132	-0.00972876	0
532.461	0.00933223	-0.00937114	0
552.461	0.00937041	-0.00904915	0
572.461	0.00931314	-0.00883344	0
592.461	0.0093895	-0.00846691	0
612.461	0.00937041	-0.00825437	0
632.461	0.00937041	-0.00792029	0
652.461	0.0093895	-0.0078013	0
672.461	0.00940858	-0.0075334	0
692.461	0.0093895	-0.00746086	0
712.461	0.00935132	-0.00711915	0
732.461	0.00937041	-0.00700015	0
752.461	0.00940858	-0.00675071	0
772.461	0.00942767	-0.00667435	0
792.461	0.00935132	-0.00645227	0
812.461	0.0093895	-0.00642236	0
832.461	0.00931314	-0.00622701	0
852.461	0.0093895	-0.00602592	0
872.461	0.00935132	-0.00589675	0
892.461	0.00940858	-0.00589484	0
912.461	0.0093895	-0.00578666	0
932.461	0.00937041	-0.00553022	0
952.461	0.00935132	-0.00547231	0
972.461	0.00933223	-0.00534568	0
992.461	0.00935132	-0.00527823	0
1012.46	0.00942767	-0.00510769	0
1032.46	0.00927497	-0.00514905	0
1052.46	0.00944676	-0.00489006	0
1072.46	0.0093895	-0.00490534	0
1092.46	0.00944676	-0.00478952	0
1112.46	0.00948494	-0.00476407	0
1132.46	0.00940858	-0.00453244	0
1152.46	0.00935132	-0.00456808	0
1172.46	0.00940858	-0.00449546	0
1192.46	0.00933223	-0.00440727	0
1212.46	0.00935132	-0.00436168	0
1232.46	0.0093895	-0.00428597	0
1252.46	0.00935132	-0.00420727	0
1272.46	0.00937041	-0.00411933	0
1292.46	0.00931314	-0.00411685	0
1312.46	0.00940858	-0.0040305	0
1332.27	0.00933223	-0.00392372	0
1332.27	0.00940858	-0.00393339	0