File: EXPERIMENTAL/Data/Battery-cycling/SEIDEP/2024-04-22_SEIDEP-5_T-cell_Li-Cu_1-mm-PP-spacer_75muL-4MLiFSI-DME_inside-glovebox_03_CP_C05.txt
time/s	Ewe/V	I/mA	error
7271.05	-0.0352959	-0.195996	0
7271.06	-0.0398238	-0.196001	0
7271.06	-0.0431481	-0.196001	0
7271.06	-0.0472748	-0.196003	0
7271.06	-0.0509048	-0.195999	0
7271.06	-0.0541909	-0.196	0
7271.06	-0.0577062	-0.195998	0
7271.07	-0.0614509	-0.195999	0
7271.07	-0.0650235	-0.196002	0
7271.07	-0.0682905	-0.195997	0
7271.07	-0.0714619	-0.195993	0
7271.08	-0.07492	-0.196002	0
7271.08	-0.0783589	-0.196002	0
7271.08	-0.0816832	-0.195991	0
7271.09	-0.0851603	-0.195999	0
7271.09	-0.0885611	-0.196003	0
7271.09	-0.0920955	-0.196004	0
7271.1	-0.0952478	-0.196	0
7271.1	-0.0984957	-0.195999	0
7271.1	-0.101724	-0.195999	0
7271.11	-0.104972	-0.196	0
7271.11	-0.108144	-0.196002	0
7271.11	-0.11164	-0.195999	0
7271.12	-0.114831	-0.196005	0
7271.12	-0.117945	-0.195992	0
7271.13	-0.121269	-0.195994	0
7271.13	-0.124517	-0.196001	0
7271.14	-0.12765	-0.195998	0
7271.14	-0.131089	-0.195998	0
7271.15	-0.134146	-0.195999	0
7271.15	-0.137489	-0.196005	0
7271.16	-0.140661	-0.195996	0
7271.17	-0.143966	-0.196003	0
7271.17	-0.147195	-0.195996	0
7271.18	-0.15029	-0.196001	0
7271.19	-0.153499	-0.196006	0
7271.2	-0.156862	-0.195999	0
7271.2	-0.160129	-0.196004	0
7271.21	-0.163434	-0.196001	0
7271.22	-0.166586	-0.195999	0
7271.23	-0.169777	-0.196002	0
7271.24	-0.172968	-0.195998	0
7271.25	-0.176063	-0.196004	0
7271.27	-0.179177	-0.196	0
7271.28	-0.182444	-0.196001	0
7271.29	-0.185692	-0.196001	0
7271.31	-0.188825	-0.196005	0
7271.33	-0.192035	-0.196001	0
7271.35	-0.195168	-0.195999	0
7271.37	-0.198301	-0.196001	0
7271.39	-0.201339	-0.195999	0
7271.43	-0.204491	-0.196	0
7271.52	-0.203478	-0.196008	0
7271.54	-0.200383	-0.196005	0
7271.57	-0.197193	-0.196003	0
7271.58	-0.193869	-0.195998	0
7271.6	-0.190678	-0.196	0
7271.61	-0.187621	-0.196001	0
7271.63	-0.184507	-0.196001	0
7271.64	-0.181164	-0.195999	0
7271.65	-0.177878	-0.196002	0
7271.67	-0.17463	-0.195999	0
7271.68	-0.171535	-0.196003	0
7271.69	-0.16844	-0.195999	0
7271.7	-0.165192	-0.196003	0
7271.72	-0.162116	-0.195998	0
7271.73	-0.159002	-0.196003	0
7271.75	-0.155849	-0.196002	0
7271.77	-0.152697	-0.196001	0
7271.79	-0.149545	-0.196004	0
7271.81	-0.14645	-0.196003	0
7271.83	-0.143278	-0.195997	0
7271.85	-0.140126	-0.195999	0
7271.88	-0.137031	-0.195997	0
7271.91	-0.133898	-0.196006	0
7271.95	-0.130764	-0.196003	0
7271.99	-0.127612	-0.196	0
7272.04	-0.124498	-0.195994	0
7272.11	-0.121307	-0.196	0
7272.2	-0.118212	-0.196002	0
7272.34	-0.115079	-0.195999	0
7272.54	-0.112003	-0.195999	0
7272.91	-0.108889	-0.195998	0
7273.79	-0.105813	-0.195996	0
7276.12	-0.102775	-0.196004	0
7279.81	-0.0996993	-0.196002	0
7284.19	-0.0966234	-0.195998	0
7288.9	-0.0935857	-0.196002	0
7294.44	-0.0905289	-0.195999	0
7301.01	-0.0874721	-0.195996	0
7309.77	-0.0843579	-0.196005	0
7321.22	-0.081282	-0.196003	0
7335.75	-0.0784735	-0.196004	0
7350.75	-0.0764293	-0.195998	0
7365.75	-0.0750346	-0.196008	0
7380.75	-0.0742131	-0.196001	0
7395.75	-0.0736399	-0.195996	0
7410.75	-0.0732196	-0.195994	0
7425.75	-0.0729713	-0.195998	0
7440.75	-0.0728375	-0.195996	0
7455.75	-0.0726847	-0.196004	0
7470.75	-0.0726656	-0.195996	0
7485.75	-0.0725509	-0.196001	0
7500.75	-0.07257	-0.196001	0
7515.75	-0.0724363	-0.196004	0
7530.75	-0.07257	-0.196007	0
7545.75	-0.0726656	-0.196	0
7560.75	-0.0726656	-0.196	0
7575.75	-0.0728184	-0.196003	0
7590.75	-0.0727229	-0.196	0
7605.75	-0.0727611	-0.196006	0
7620.75	-0.0726656	-0.195998	0
7635.75	-0.0727611	-0.196005	0
7650.75	-0.0729713	-0.196008	0
7665.75	-0.0729713	-0.196003	0
7680.75	-0.0729713	-0.196006	0
7695.75	-0.0729713	-0.195994	0
7710.75	-0.073105	-0.196003	0
7725.75	-0.073105	-0.196003	0
7740.75	-0.0731241	-0.196003	0
7755.75	-0.072933	-0.196001	0
7770.75	-0.0731432	-0.196005	0
7785.75	-0.0730477	-0.196	0
7800.75	-0.0731241	-0.19601	0
7815.75	-0.0730668	-0.196001	0
7830.75	-0.0730286	-0.196003	0
7845.75	-0.0729713	-0.196001	0
7860.75	-0.0730286	-0.196007	0
7875.75	-0.0729522	-0.196005	0
7890.75	-0.0729139	-0.196001	0
7905.75	-0.0728184	-0.196001	0
7920.75	-0.0728375	-0.196001	0
7935.75	-0.0727229	-0.195999	0
7950.75	-0.072742	-0.195998	0
7965.75	-0.0726465	-0.196001	0
7980.75	-0.0725509	-0.195998	0
7995.75	-0.0726274	-0.196004	0
8010.75	-0.0726083	-0.196003	0
8025.75	-0.0723599	-0.196005	0
8040.75	-0.0723599	-0.196006	0
8055.75	-0.0722644	-0.196	0
8070.75	-0.0721688	-0.195999	0
8085.75	-0.0719778	-0.196006	0
8100.75	-0.0720733	-0.195997	0
8115.75	-0.0718632	-0.196002	0
8130.75	-0.0717485	-0.196004	0
8145.75	-0.0717867	-0.196002	0
8160.75	-0.0717485	-0.195998	0
8175.75	-0.0715957	-0.196	0
8190.75	-0.0715766	-0.195998	0
8205.75	-0.0716721	-0.195996	0
8220.75	-0.0714428	-0.196001	0
8235.75	-0.0715193	-0.196001	0
8250.75	-0.0713091	-0.196002	0
8265.75	-0.07129	-0.196002	0
8280.75	-0.0711372	-0.196002	0
8295.75	-0.07129	-0.195998	0
8310.75	-0.0711181	-0.195998	0
8325.75	-0.0710034	-0.196005	0
8340.75	-0.0710416	-0.196005	0
8355.75	-0.0707742	-0.196006	0
8370.75	-0.0710034	-0.196001	0
8385.75	-0.0710034	-0.196002	0
8400.75	-0.0707168	-0.196008	0
8415.75	-0.0706977	-0.196004	0
8430.75	-0.0707551	-0.196005	0
8445.75	-0.0706595	-0.196	0
8460.75	-0.0706022	-0.196002	0
8475.75	-0.0706786	-0.196007	0
8490.75	-0.0706404	-0.196003	0
8505.75	-0.0704303	-0.195997	0
8520.75	-0.0705449	-0.19601	0
8535.75	-0.070373	-0.195999	0
8550.75	-0.0703347	-0.195998	0
8565.75	-0.070201	-0.195996	0
8580.75	-0.0703921	-0.196006	0
8595.75	-0.0701628	-0.196003	0
8610.75	-0.0703347	-0.196002	0
8625.75	-0.0701628	-0.195996	0
8640.75	-0.0702392	-0.196002	0
8655.75	-0.0701055	-0.196003	0
8670.75	-0.0701819	-0.196	0
8685.75	-0.0701055	-0.196006	0
8700.75	-0.0700291	-0.196003	0
8715.75	-0.07001	-0.195999	0
8730.75	-0.0700482	-0.195998	0
8745.75	-0.0699717	-0.195999	0
8760.75	-0.0700482	-0.195998	0
8775.75	-0.0699717	-0.195999	0
8790.75	-0.0698762	-0.195995	0
8805.75	-0.0699526	-0.196001	0
8820.75	-0.0699144	-0.195999	0
8835.75	-0.0697425	-0.196006	0
8850.75	-0.0697234	-0.196004	0
8865.75	-0.0697043	-0.196001	0
8880.75	-0.0696852	-0.195996	0
8895.75	-0.0697043	-0.195999	0
8910.75	-0.0697616	-0.196001	0
8925.75	-0.0695705	-0.195999	0
8940.75	-0.0695514	-0.195999	0
8955.75	-0.0696279	-0.195997	0
8970.75	-0.0696087	-0.196001	0
8985.75	-0.0694941	-0.196001	0
9000.75	-0.0694941	-0.196002	0
9015.75	-0.069475	-0.195999	0
9030.75	-0.0694177	-0.196003	0
9045.75	-0.0694559	-0.196003	0
9060.75	-0.0693795	-0.195998	0
9071.05	-0.069475	-0.195994	0