File: EXPERIMENTAL/Data/Battery-cycling/SEIDEP/2024-04-22_SEIDEP-5_T-cell_Li-Cu_1-mm-PP-spacer_75muL-4MLiFSI-DME_inside-glovebox_02_MB_C05.txt
time/s	Ewe/V	I/mA	error
60.053	2.78922	-0.0250364	0
60.1742	0.00854607	-9.88612	0
60.1762	0.00858428	-9.77915	0
60.178	0.00862249	-9.67472	0
60.1802	0.00867981	-9.55755	0
60.1824	0.00846965	-9.44102	0
60.1848	0.00854607	-9.32067	0
60.187	0.00854607	-9.20605	0
60.1894	0.00860339	-9.09271	0
60.1914	0.00854607	-8.98891	0
60.1936	0.00867981	-8.88003	0
60.196	0.00869891	-8.76987	0
60.1984	0.00846965	-8.65397	0
60.2008	0.00867981	-8.5419	0
60.2034	0.00860339	-8.42155	0
60.206	0.00858428	-8.31203	0
60.2084	0.00852697	-8.20314	0
60.2112	0.00860339	-8.0898	0
60.2138	0.00858428	-7.97518	0
60.2166	0.00846965	-7.86311	0
60.2192	0.00862249	-7.75422	0
60.222	0.00856518	-7.64915	0
60.2248	0.00856518	-7.53772	0
60.2278	0.0086607	-7.42182	0
60.2308	0.00856518	-7.31103	0
60.234	0.00860339	-7.18877	0
60.237	0.0086416	-7.08306	0
60.2398	0.00856518	-6.97609	0
60.2428	0.00850786	-6.87038	0
60.246	0.00852697	-6.76786	0
60.2494	0.0086607	-6.65197	0
60.2524	0.00852697	-6.54818	0
60.2562	0.0086607	-6.43228	0
60.2598	0.00862249	-6.31576	0
60.2636	0.00850786	-6.20687	0
60.2672	0.00858428	-6.09925	0
60.2706	0.00852697	-5.99673	0
60.2742	0.00850786	-5.89294	0
60.2786	0.00846965	-5.78278	0
60.2828	0.00856518	-5.67135	0
60.287	0.00854607	-5.56883	0
60.2916	0.00856518	-5.45548	0
60.2966	0.00860339	-5.33895	0
60.3014	0.00858428	-5.23516	0
60.3064	0.00854607	-5.13328	0
60.3116	0.00867981	-5.02375	0
60.3176	0.00854607	-4.91996	0
60.3234	0.00854607	-4.80598	0
60.33	0.00848876	-4.699	0
60.3362	0.0086416	-4.59648	0
60.3432	0.00854607	-4.49205	0
60.3504	0.00856518	-4.38889	0
60.3578	0.00856518	-4.2851	0
60.3664	0.00852697	-4.17494	0
60.4034	0.00858428	-3.82238	0
60.4144	0.00856518	-3.72135	0
60.4262	0.00867981	-3.62007	0
60.439	0.00858428	-3.51873	0
60.4528	0.00852697	-3.41732	0
60.4674	0.00856518	-3.31636	0
60.4834	0.00856518	-3.21533	0
60.5006	0.00850786	-3.11437	0
60.5194	0.00856518	-3.01315	0
60.5398	0.00848876	-2.9113	0
60.5622	0.00858428	-2.81002	0
60.5864	0.00860339	-2.70912	0
60.6128	0.00860339	-2.60797	0
60.6416	0.00856518	-2.50739	0
60.6734	0.00856518	-2.40662	0
60.7086	0.0086416	-2.30508	0
60.7478	0.00848876	-2.20463	0
60.7912	0.00867981	-2.10392	0
60.8394	0.00854607	-2.00385	0
60.8938	0.00854607	-1.90251	0
60.9552	0.00862249	-1.8018	0
61.0252	0.00862249	-1.70148	0
61.1058	0.00860339	-1.6009	0
61.1986	0.00862249	-1.50051	0
61.3078	0.00867981	-1.3998	0
61.4352	0.00862249	-1.2996	0
61.59	0.0086416	-1.19921	0
61.7782	0.0086607	-1.09889	0
62.0106	0.00850786	-0.998691	0
62.3072	0.00854607	-0.898557	0
62.6976	0.00856518	-0.798232	0
63.2302	0.00862249	-0.698035	0
63.994	0.0086416	-0.597901	0
65.0528	0.00856518	-0.507131	0
65.8552	0.00858428	-0.457382	0
68.74	0.00867981	-0.357308	0
75.2442	0.00858428	-0.257218	0
98.0922	0.0086416	-0.157165	0
158.092	0.00858428	-0.0991828	0
218.092	0.0086607	-0.079157	0
278.092	0.00856518	-0.0677147	0
338.092	0.0086416	-0.0599527	0
398.092	0.00856518	-0.0543047	0
458.092	0.00854607	-0.049752	0
518.092	0.0086416	-0.0458232	0
578.092	0.00860339	-0.0432735	0
638.092	0.00852697	-0.0407657	0
698.092	0.0086416	-0.0385679	0
758.092	0.00854607	-0.0367248	0
818.092	0.00860339	-0.0349905	0
878.092	0.00867981	-0.0335147	0
938.092	0.00860339	-0.0321981	0
998.092	0.00867981	-0.0309566	0
1058.09	0.0086416	-0.0299513	0
1118.09	0.00860339	-0.0289537	0
1178.09	0.00867981	-0.0279561	0
1238.09	0.0086607	-0.0272303	0
1298.09	0.00860339	-0.0263459	0
1358.09	0.0086607	-0.0256571	0
1418.09	0.00860339	-0.0249695	0
1478.09	0.00854607	-0.0243443	0
1538.09	0.00848876	-0.0238254	0
1598.09	0.0086607	-0.0232117	0
1658.09	0.00858428	-0.0227373	0
1718.09	0.00858428	-0.0222611	0
1778.09	0.00854607	-0.0218397	0
1838.09	0.0086607	-0.0213895	0
1898.09	0.0086416	-0.0209515	0
1958.09	0.00869891	-0.0205765	0
2018.09	0.00850786	-0.0202174	0
2078.09	0.00862249	-0.0199214	0
2138.09	0.00860339	-0.0195814	0
2198.09	0.00867981	-0.0190161	0
2258.09	0.00858428	-0.0187289	0
2318.09	0.00858428	-0.0184717	0
2378.09	0.00856518	-0.0182024	0
2438.09	0.00867981	-0.0179433	0
2498.09	0.00856518	-0.017793	0
2558.09	0.00854607	-0.0175371	0
2618.09	0.00862249	-0.0173206	0
2678.09	0.00860339	-0.0171405	0
2738.09	0.00871802	-0.0169565	0
2798.09	0.00854607	-0.0165936	0
2858.09	0.0086607	-0.0163803	0
2918.09	0.0086416	-0.0161912	0
2978.09	0.00858428	-0.0159595	0
3038.09	0.00860339	-0.0158964	0
3098.09	0.00871802	-0.0157194	0
3158.09	0.00860339	-0.0155711	0
3218.09	0.00856518	-0.0154094	0
3278.09	0.00867981	-0.0152483	0
3338.09	0.00858428	-0.0151025	0
3398.09	0.00871802	-0.0149446	0
3458.09	0.00854607	-0.014781	0
3518.09	0.00848876	-0.0146237	0
3578.09	0.00858428	-0.0144951	0
3638.09	0.00867981	-0.0143576	0
3698.09	0.0086607	-0.0142284	0
3758.09	0.0086416	-0.0138935	0
3818.09	0.00856518	-0.0137891	0
3878.09	0.00871802	-0.0136713	0
3938.09	0.0086607	-0.0135758	0
3998.09	0.00867981	-0.0134606	0
4058.09	0.00856518	-0.013332	0
4118.09	0.00862249	-0.0132371	0
4178.09	0.0086607	-0.0131085	0
4238.09	0.00856518	-0.0130792	0
4298.09	0.0086416	-0.0129404	0
4358.09	0.00862249	-0.0129449	0
4418.09	0.00869891	-0.0127876	0
4478.09	0.00869891	-0.0126787	0
4538.09	0.00852697	-0.0125985	0
4598.09	0.00852697	-0.0124884	0
4658.09	0.00860339	-0.0124247	0
4718.09	0.00862249	-0.0123579	0
4778.09	0.00860339	-0.0123069	0
4838.09	0.00852697	-0.0122477	0
4898.09	0.00848876	-0.012121	0
4958.09	0.00854607	-0.0120593	0
5018.09	0.00867981	-0.0119905	0
5078.09	0.00854607	-0.0119218	0
5138.09	0.00848876	-0.0118816	0
5198.09	0.00858428	-0.0118014	0
5258.09	0.0086607	-0.0117365	0
5318.09	0.0086607	-0.0115945	0
5378.09	0.00867981	-0.01159	0
5438.09	0.0086416	-0.0115493	0
5498.09	0.0086416	-0.0113481	0
5558.09	0.0086416	-0.0113742	0
5618.09	0.00858428	-0.0112972	0
5678.09	0.0086416	-0.0112335	0
5738.09	0.00862249	-0.0111508	0
5798.09	0.00862249	-0.0110705	0
5858.09	0.00867981	-0.0110521	0
5918.09	0.00860339	-0.0110005	0
5978.09	0.00852697	-0.0108757	0
6038.09	0.00858428	-0.0108515	0
6098.09	0.00858428	-0.0108343	0
6158.09	0.00858428	-0.0107675	0
6218.09	0.00860339	-0.0107471	0
6278.09	0.00867981	-0.0106892	0
6338.09	0.00871802	-0.0106325	0
6398.09	0.00860339	-0.0105835	0
6458.09	0.00858428	-0.0105071	0
6518.09	0.00856518	-0.0104154	0
6578.09	0.00869891	-0.0104288	0
6638.09	0.00846965	-0.010374	0
6698.09	0.00858428	-0.0103167	0
6758.09	0.00860339	-0.0102518	0
6818.09	0.00858428	-0.0101913	0
6878.09	0.00860339	-0.0101677	0
6938.09	0.00871802	-0.0101327	0
6998.09	0.00860339	-0.0101187	0
7058.09	0.00858428	-0.0100646	0
7118.09	0.00856518	-0.010036	0
7178.09	0.00860339	-0.0099933	0
7238.09	0.00871802	-0.00992582	0
7271.05	0.00860339	-0.00978193	0
7271.05	0.00860339	-0.00980804	0