File: EXPERIMENTAL/Data/Battery-cycling/SEIDEP/2024-04-18_SEIDEP-1_T-cell_Li-Cu_1-mm-PP-spacer_75muL-4MLiFSI-DME_inside-glovebox_03_CP_C10.txt
time/s	Ewe/V	I/mA	error
82.1586	0.0087414	-0.19599	0
82.4284	0.00767231	-0.195992	0
82.6312	0.00666048	-0.19599	0
82.7876	0.00564866	-0.195985	0
82.9518	0.00461775	-0.19599	0
83.0922	0.00360592	-0.195984	0
83.2284	0.00257501	-0.195991	0
83.3678	0.00156318	-0.195991	0
83.492	0.000551359	-0.195984	0
83.615	-0.000460464	-0.195991	0
83.738	-0.00154865	-0.195989	0
83.8718	-0.00259866	-0.195988	0
83.9862	-0.00364866	-0.195992	0
84.1052	-0.00466049	-0.195996	0
84.2316	-0.00571049	-0.19599	0
84.3556	-0.00674141	-0.195991	0
84.476	-0.0078105	-0.195987	0
84.5966	-0.00882233	-0.195991	0
84.7128	-0.00983415	-0.195989	0
84.8326	-0.0108651	-0.19599	0
84.9522	-0.0118769	-0.19599	0
85.0688	-0.0129078	-0.195997	0
85.1974	-0.0140151	-0.195987	0
85.3158	-0.015046	-0.195986	0
85.4362	-0.0160578	-0.195988	0
85.5542	-0.0171269	-0.195993	0
85.678	-0.0181387	-0.19599	0
85.7864	-0.0191506	-0.195988	0
85.91	-0.0202006	-0.195994	0
86.0252	-0.0212124	-0.195991	0
86.1464	-0.0222242	-0.19599	0
86.2636	-0.0232551	-0.19599	0
86.3896	-0.024286	-0.19599	0
86.5026	-0.0253361	-0.195987	0
86.6228	-0.0263479	-0.195995	0
86.7524	-0.0273597	-0.195989	0
86.876	-0.0283906	-0.195989	0
86.9928	-0.0294597	-0.195988	0
87.1184	-0.0304715	-0.195993	0
87.2478	-0.0315025	-0.195991	0
87.361	-0.0325143	-0.195995	0
87.4874	-0.0335643	-0.195987	0
87.6086	-0.0346525	-0.195997	0
87.7406	-0.0356643	-0.19599	0
87.8624	-0.0366952	-0.19599	0
87.9862	-0.037707	-0.195989	0
88.1142	-0.0387189	-0.195993	0
88.227	-0.039807	-0.195989	0
88.3582	-0.040857	-0.195987	0
88.484	-0.0418689	-0.195986	0
88.6048	-0.0430143	-0.195991	0
88.7518	-0.0440643	-0.195984	0
88.8862	-0.0451143	-0.19599	0
89.016	-0.0461262	-0.195994	0
89.1404	-0.0471762	-0.195991	0
89.2718	-0.0482262	-0.195984	0
89.4072	-0.0492953	-0.19599	0
89.5368	-0.0503262	-0.195991	0
89.6694	-0.051338	-0.195997	0
89.7946	-0.052388	-0.195995	0
89.932	-0.0534189	-0.195989	0
90.0572	-0.0544308	-0.195991	0
90.1848	-0.0554426	-0.195991	0
90.3168	-0.0564735	-0.195991	0
90.4566	-0.0575617	-0.195986	0
90.5966	-0.0585926	-0.195993	0
90.7294	-0.0596235	-0.195986	0
90.8632	-0.0606353	-0.195989	0
91.01	-0.0616853	-0.195991	0
91.1434	-0.0627163	-0.195989	0
91.2804	-0.0637472	-0.19599	0
91.4298	-0.0648735	-0.195991	0
91.5836	-0.0658854	-0.19599	0
91.7196	-0.0669163	-0.195988	0
91.8604	-0.0679472	-0.195995	0
92.0086	-0.0690736	-0.195988	0
92.157	-0.0700854	-0.195992	0
92.3046	-0.0711163	-0.195997	0
92.4626	-0.0721281	-0.195993	0
92.6048	-0.07314	-0.195991	0
92.7634	-0.0741518	-0.195996	0
92.9166	-0.0752018	-0.19599	0
93.0882	-0.0762136	-0.195987	0
93.2302	-0.0772254	-0.195989	0
93.4068	-0.0782945	-0.195986	0
93.584	-0.0793063	-0.195988	0
93.7566	-0.0803182	-0.195997	0
93.9476	-0.0813682	-0.195991	0
94.1346	-0.0824373	-0.195989	0
94.3614	-0.0834682	-0.195993	0
94.6104	-0.0845373	-0.19599	0
94.9048	-0.0855491	-0.195991	0
95.3188	-0.0865609	-0.195991	0
96.705	-0.08553	-0.195989	0
97.1862	-0.08448	-0.19599	0
97.6922	-0.0834491	-0.195986	0
98.1578	-0.0824373	-0.195991	0
98.7332	-0.0813873	-0.195992	0
99.4106	-0.0803754	-0.195991	0
100.133	-0.0793636	-0.19599	0
101.146	-0.0783518	-0.195991	0
102.342	-0.07734	-0.195982	0
103.99	-0.0763282	-0.19599	0
105.99	-0.0756218	-0.195993	0
107.99	-0.0750491	-0.195995	0
109.99	-0.0744	-0.195991	0
111.99	-0.0740181	-0.195993	0
113.99	-0.0737509	-0.19599	0
115.99	-0.0735409	-0.195991	0
117.99	-0.0732545	-0.195991	0
119.99	-0.0730254	-0.195983	0
121.99	-0.0729109	-0.19599	0
123.99	-0.0727581	-0.195998	0
125.99	-0.0726245	-0.19599	0
127.99	-0.0724909	-0.195993	0
129.99	-0.0724336	-0.195988	0
131.99	-0.0722618	-0.195987	0
133.99	-0.0719754	-0.195991	0
135.99	-0.0718418	-0.195993	0
137.99	-0.0718799	-0.195995	0
139.99	-0.0716699	-0.195994	0
141.99	-0.0715936	-0.195992	0
143.99	-0.071479	-0.195983	0
145.99	-0.0713454	-0.195993	0
147.99	-0.0713645	-0.195995	0
149.99	-0.0710972	-0.195993	0
151.99	-0.0709636	-0.195993	0
153.99	-0.0710972	-0.195998	0
155.99	-0.0709254	-0.195991	0
157.99	-0.0708299	-0.19599	0
159.99	-0.0706008	-0.195995	0
161.99	-0.0705436	-0.195994	0
163.99	-0.0704481	-0.195986	0
165.99	-0.0705054	-0.19599	0
167.99	-0.0702954	-0.195988	0
169.99	-0.0701427	-0.195988	0
171.99	-0.070219	-0.195995	0
173.99	-0.0700663	-0.195993	0
175.99	-0.0699899	-0.195986	0
177.99	-0.0698181	-0.195992	0
179.99	-0.0696272	-0.19599	0
181.99	-0.0695699	-0.195996	0
183.99	-0.0694745	-0.195992	0
185.99	-0.0694172	-0.195989	0
187.99	-0.0693981	-0.195989	0
189.99	-0.0690927	-0.195991	0
191.99	-0.0693408	-0.195995	0
193.99	-0.0691499	-0.195991	0
195.99	-0.0690927	-0.195991	0
197.99	-0.0689208	-0.195984	0
199.99	-0.068959	-0.195992	0
201.99	-0.0688063	-0.195996	0
203.99	-0.0688254	-0.195984	0
205.99	-0.068749	-0.19599	0
207.99	-0.0687681	-0.19599	0
209.99	-0.0686727	-0.195987	0
211.99	-0.068539	-0.195991	0
213.99	-0.0686345	-0.195995	0
215.99	-0.0684817	-0.195995	0
217.99	-0.0683481	-0.195987	0
219.99	-0.0682908	-0.195986	0
221.99	-0.0684627	-0.195998	0
223.99	-0.068329	-0.195992	0
225.99	-0.0681763	-0.195985	0
227.99	-0.0681954	-0.19599	0
229.99	-0.0682717	-0.19599	0
231.99	-0.0681572	-0.195988	0
233.99	-0.0679663	-0.195984	0
235.99	-0.0680999	-0.195987	0
237.99	-0.0680427	-0.195988	0
239.99	-0.0679663	-0.195995	0
241.99	-0.0680045	-0.19599	0
243.99	-0.0678899	-0.195995	0
245.99	-0.0681572	-0.195992	0
247.99	-0.0680236	-0.195985	0
249.99	-0.067909	-0.195989	0
251.99	-0.0679854	-0.195995	0
253.99	-0.0679854	-0.195988	0
255.99	-0.0680236	-0.195993	0
257.99	-0.0681763	-0.195992	0
259.99	-0.0679472	-0.195993	0
261.99	-0.0679281	-0.195989	0
263.99	-0.0679854	-0.19599	0
265.99	-0.067909	-0.195991	0
267.99	-0.0680045	-0.19599	0
269.99	-0.068119	-0.195989	0
271.99	-0.0680427	-0.195988	0
273.99	-0.0680808	-0.195987	0
275.99	-0.0679281	-0.19599	0
277.99	-0.0680617	-0.195981	0
279.99	-0.0679663	-0.195995	0
281.99	-0.0680236	-0.195988	0
283.99	-0.0679854	-0.195995	0
285.99	-0.0680427	-0.195984	0
287.99	-0.0680999	-0.19599	0
289.99	-0.0680427	-0.19599	0
291.99	-0.0681954	-0.195989	0
293.99	-0.0681381	-0.195989	0
295.99	-0.0681381	-0.195985	0
297.99	-0.0682336	-0.195988	0
299.99	-0.0681381	-0.195991	0
301.99	-0.0683099	-0.195993	0
303.99	-0.0680808	-0.195987	0
305.99	-0.068119	-0.195989	0
307.99	-0.0680617	-0.195991	0
309.99	-0.0681572	-0.195991	0
311.99	-0.0682336	-0.195991	0
313.99	-0.0682908	-0.195986	0
315.99	-0.0682145	-0.195996	0
317.99	-0.0682145	-0.195993	0
319.99	-0.0681954	-0.195995	0
321.99	-0.0682527	-0.195991	0
323.99	-0.0681572	-0.19599	0
325.99	-0.0681954	-0.195991	0
327.99	-0.0683863	-0.195986	0
329.99	-0.0684245	-0.19599	0
331.99	-0.0682717	-0.195986	0
333.99	-0.0683672	-0.195986	0
335.99	-0.0683863	-0.195991	0
337.99	-0.0683099	-0.195993	0
339.99	-0.068329	-0.195994	0
341.99	-0.0684436	-0.195987	0
343.99	-0.0685199	-0.195992	0
345.99	-0.0683481	-0.19599	0
347.99	-0.0684817	-0.195991	0
349.99	-0.0685199	-0.195991	0
351.99	-0.0685772	-0.195996	0
353.99	-0.0683672	-0.195992	0
355.99	-0.0685199	-0.195992	0
357.99	-0.0685963	-0.195989	0
359.99	-0.0684245	-0.195991	0
361.99	-0.0685963	-0.195992	0
363.99	-0.0684817	-0.195995	0
365.99	-0.0685772	-0.195994	0
367.99	-0.0685581	-0.195996	0
369.99	-0.0687108	-0.195993	0
371.99	-0.0686917	-0.19599	0
373.99	-0.0686917	-0.195991	0
375.99	-0.0686727	-0.195991	0
377.99	-0.0686727	-0.19599	0
379.99	-0.0686727	-0.195993	0
381.99	-0.0686917	-0.195993	0
383.99	-0.0688636	-0.19599	0
385.99	-0.0687108	-0.195985	0
387.99	-0.0686917	-0.195993	0
389.99	-0.068749	-0.19599	0
391.99	-0.0687299	-0.195988	0
393.99	-0.0687299	-0.195994	0
395.99	-0.0689208	-0.19599	0
397.99	-0.0687681	-0.19599	0
399.99	-0.0687108	-0.195995	0
401.99	-0.0689017	-0.195993	0
403.99	-0.0688827	-0.195995	0
405.99	-0.068959	-0.195993	0
407.99	-0.0689972	-0.19599	0
409.99	-0.0688636	-0.195997	0
411.99	-0.0690354	-0.195989	0
413.99	-0.0689208	-0.19599	0
415.99	-0.0688827	-0.195993	0
417.99	-0.0689972	-0.195989	0
419.99	-0.0689781	-0.195986	0
421.99	-0.068959	-0.195989	0
423.99	-0.0690927	-0.195989	0
425.99	-0.0689399	-0.195983	0
427.99	-0.0689972	-0.195992	0
429.99	-0.0690354	-0.195993	0
431.99	-0.0690927	-0.195987	0
433.99	-0.0690736	-0.195991	0
435.99	-0.068959	-0.195993	0
437.99	-0.0690354	-0.195992	0
439.99	-0.0690163	-0.195995	0
441.99	-0.0690736	-0.195988	0
442.157	-0.0690927	-0.195986	0