File: EXPERIMENTAL/Data/Battery-cycling/JP-measurements/T-cell/2024-04-22_JP-A2_T-cell_Li-Cu_1-mm-PP-spacer_75muL-4MLiFSI-DME_inside-glovebox_03_CP_C10.txt
time/s	Ewe/V	I/mA	error
43222.3	-0.00056976	-0.0240376	1
43222.3	-0.00280341	-0.0240373	0
43222.3	-0.00492251	-0.0240367	0
43222.3	-0.00704161	-0.0240376	0
43222.3	-0.00917981	-0.0240381	0
43222.3	-0.0112607	-0.0240373	0
43222.4	-0.0132844	-0.0240378	0
43222.4	-0.0154035	-0.0240371	0
43222.4	-0.0177708	-0.0240372	0
43222.4	-0.0198517	-0.0240379	0
43222.4	-0.0219708	-0.0240375	0
43222.4	-0.0241281	-0.0240376	0
43222.5	-0.0261899	-0.0240379	0
43222.5	-0.0282135	-0.0240373	0
43222.5	-0.0302563	-0.0240373	0
43222.5	-0.032299	-0.0240376	0
43222.5	-0.0343609	-0.0240379	0
43222.6	-0.0365181	-0.0240378	0
43222.6	-0.03858	-0.0240375	0
43222.6	-0.0406991	-0.0240372	0
43222.7	-0.0428182	-0.0240373	0
43222.7	-0.0449564	-0.0240373	0
43222.7	-0.0471136	-0.0240378	0
43222.8	-0.0491373	-0.0240371	0
43222.8	-0.05118	-0.0240376	0
43222.8	-0.0532419	-0.0240376	0
43222.9	-0.0553228	-0.0240374	0
43222.9	-0.0574228	-0.0240379	0
43222.9	-0.059561	-0.0240379	0
43223	-0.0616419	-0.0240377	0
43223	-0.0636846	-0.024037	0
43223.1	-0.0657274	-0.0240378	0
43223.1	-0.067751	-0.0240372	0
43223.2	-0.0697747	-0.0240376	0
43223.2	-0.071932	-0.0240377	0
43223.3	-0.0739556	-0.0240376	0
43223.4	-0.0760556	-0.0240373	0
43223.4	-0.0781175	-0.024037	0
43223.5	-0.0801793	-0.0240373	0
43223.6	-0.0822602	-0.0240375	0
43223.6	-0.0843602	-0.0240378	0
43223.7	-0.0863839	-0.0240374	0
43223.8	-0.0884839	-0.0240368	0
43223.9	-0.0905075	-0.0240378	0
43224	-0.0926075	-0.0240377	0
43224.1	-0.0946312	-0.0240373	0
43224.2	-0.0966548	-0.0240373	0
43224.3	-0.0986976	-0.0240375	0
43224.4	-0.100778	-0.0240373	0
43224.9	-0.100778	-0.0240369	0
43225.1	-0.0987167	-0.0240373	0
43225.2	-0.0966357	-0.0240374	0
43225.3	-0.0945166	-0.0240376	0
43225.4	-0.0924357	-0.0240373	0
43225.5	-0.0904121	-0.024037	0
43225.5	-0.0883884	-0.0240376	0
43225.6	-0.0863457	-0.024037	0
43225.7	-0.0842839	-0.0240377	0
43225.8	-0.0822029	-0.0240378	0
43225.9	-0.0801602	-0.0240373	0
43226	-0.0780984	-0.0240374	0
43226.1	-0.0760365	-0.0240373	0
43226.2	-0.0739365	-0.0240375	0
43226.4	-0.0718556	-0.0240373	0
43226.5	-0.0697556	-0.024037	0
43226.7	-0.0677129	-0.0240371	0
43226.9	-0.0656701	-0.0240375	0
43227.1	-0.0636274	-0.0240374	0
43227.3	-0.0616037	-0.0240371	0
43227.7	-0.0594655	-0.0240372	0
43228.1	-0.0574419	-0.0240379	0
43228.6	-0.0553992	-0.0240376	0
43229.3	-0.0533755	-0.0240372	0
43230.2	-0.0513137	-0.024037	0
43231.6	-0.0492709	-0.0240371	0
43233.6	-0.0472091	-0.0240374	0
43237.1	-0.0451664	-0.0240376	0
43241.9	-0.0431427	-0.0240377	0
43249.7	-0.0411	-0.024037	0
43258.6	-0.0392863	-0.0240377	0
43268.6	-0.0381027	-0.0240376	0
43278.5	-0.0366518	-0.0240369	0
43288.5	-0.0355254	-0.0240372	0
43298.5	-0.0343418	-0.0240377	0
43308.5	-0.0333108	-0.0240376	0
43318.5	-0.0324327	-0.0240378	0
43328.5	-0.0318027	-0.0240378	0
43338.5	-0.0311345	-0.0240368	0
43348.5	-0.0307336	-0.0240382	0
43358.5	-0.0303136	-0.0240376	0
43368.5	-0.0298936	-0.0240376	0
43378.5	-0.0296263	-0.024037	0
43388.5	-0.0293972	-0.0240375	0
43398.5	-0.0291872	-0.0240369	0
43408.5	-0.0290154	-0.0240371	0
43418.5	-0.0287863	-0.0240374	0
43428.5	-0.0286336	-0.0240376	0
43438.5	-0.028519	-0.0240375	0
43448.5	-0.028309	-0.0240378	0
43458.5	-0.0283854	-0.024037	0
43468.5	-0.0283281	-0.0240373	0
43478.5	-0.0281754	-0.0240372	0
43488.5	-0.0279845	-0.0240376	0
43498.5	-0.0279081	-0.0240374	0
43508.5	-0.0280226	-0.0240374	0
43518.5	-0.0279081	-0.0240375	0
43528.5	-0.0276408	-0.0240369	0
43538.5	-0.0277554	-0.0240373	0
43548.5	-0.0274881	-0.0240374	0
43558.5	-0.0275072	-0.0240373	0
43568.5	-0.0273545	-0.0240376	0
43578.5	-0.0274499	-0.0240371	0
43588.5	-0.0273926	-0.0240378	0
43598.5	-0.0274308	-0.0240373	0
43608.5	-0.0272781	-0.0240376	0
43618.5	-0.0272972	-0.0240376	0
43628.5	-0.0272399	-0.0240374	0
43638.5	-0.0271445	-0.0240374	0
43648.5	-0.0270299	-0.0240373	0
43658.5	-0.0270872	-0.0240375	0
43668.5	-0.0271063	-0.0240375	0
43678.5	-0.0269154	-0.0240372	0
43688.5	-0.027049	-0.0240372	0
43698.5	-0.0271826	-0.0240376	0
43708.5	-0.0270681	-0.0240379	0
43718.5	-0.0269535	-0.0240376	0
43728.5	-0.0268963	-0.0240374	0
43738.5	-0.0270108	-0.0240372	0
43748.5	-0.0269154	-0.0240379	0
43758.5	-0.026839	-0.0240375	0
43768.5	-0.0268772	-0.0240378	0
43778.5	-0.026839	-0.0240374	0
43788.5	-0.0268581	-0.0240372	0
43798.5	-0.0268581	-0.0240373	0
43808.5	-0.0266099	-0.0240379	0
43818.5	-0.0267244	-0.0240373	0
43828.5	-0.0267054	-0.0240376	0
43838.5	-0.0268199	-0.0240373	0
43848.5	-0.0267435	-0.0240376	0
43858.5	-0.0267435	-0.0240371	0
43868.5	-0.0266481	-0.0240371	0
43878.5	-0.0266863	-0.0240376	0
43888.5	-0.0268008	-0.0240376	0
43898.5	-0.0265908	-0.0240374	0
43908.5	-0.026629	-0.0240374	0
43918.5	-0.0265335	-0.0240369	0
43928.5	-0.026629	-0.0240374	0
43938.5	-0.0265908	-0.0240371	0
43948.5	-0.0265717	-0.0240376	0
43958.5	-0.0265526	-0.0240373	0
43968.5	-0.0266099	-0.0240374	0
43978.5	-0.026629	-0.0240376	0
43988.5	-0.0265908	-0.0240375	0
43998.5	-0.0265526	-0.0240376	0
44008.5	-0.026629	-0.0240376	0
44018.5	-0.0265144	-0.0240377	0
44028.5	-0.0264572	-0.0240376	0
44038.5	-0.0264954	-0.0240379	0
44048.5	-0.0265144	-0.024037	0
44058.5	-0.0264381	-0.0240379	0
44068.5	-0.0265144	-0.0240374	0
44078.5	-0.0263617	-0.0240371	0
44088.5	-0.0265526	-0.0240369	0
44098.5	-0.0263426	-0.0240377	0
44108.5	-0.0264381	-0.0240378	0
44118.5	-0.0263617	-0.0240374	0
44128.5	-0.0263808	-0.0240373	0
44138.5	-0.0264572	-0.0240374	0
44148.5	-0.0263617	-0.0240376	0
44158.5	-0.0262854	-0.0240373	0
44168.5	-0.0263617	-0.0240373	0
44178.5	-0.0263999	-0.0240376	0
44188.5	-0.0263426	-0.0240379	0
44198.5	-0.0262854	-0.0240367	0
44208.5	-0.0262854	-0.0240378	0
44218.5	-0.0263808	-0.0240373	0
44228.5	-0.0263426	-0.0240369	0
44238.5	-0.0262854	-0.0240374	0
44248.5	-0.0263235	-0.0240374	0
44258.5	-0.0262472	-0.0240376	0
44268.5	-0.0262854	-0.0240373	0
44278.5	-0.026209	-0.0240373	0
44288.5	-0.0261517	-0.0240376	0
44298.5	-0.026209	-0.0240379	0
44308.5	-0.0262281	-0.0240376	0
44318.5	-0.0261517	-0.0240375	0
44328.5	-0.0261899	-0.0240373	0
44338.5	-0.0261135	-0.0240378	0
44348.5	-0.0261517	-0.0240373	0
44358.5	-0.0263235	-0.0240378	0
44368.5	-0.0261708	-0.0240374	0
44378.5	-0.0261899	-0.0240372	0
44388.5	-0.0262281	-0.0240372	0
44398.5	-0.0262472	-0.0240374	0
44408.5	-0.0261326	-0.0240376	0
44418.5	-0.0260563	-0.0240376	0
44428.5	-0.0261708	-0.0240376	0
44438.5	-0.0261708	-0.0240373	0
44448.5	-0.0262854	-0.0240376	0
44458.5	-0.0261708	-0.0240377	0
44468.5	-0.0260563	-0.0240379	0
44478.5	-0.0260944	-0.0240376	0
44488.5	-0.0260754	-0.0240377	0
44498.5	-0.0261517	-0.0240371	0
44508.5	-0.0260181	-0.0240376	0
44518.5	-0.0261326	-0.0240375	0
44528.5	-0.0260372	-0.0240371	0
44538.5	-0.0260563	-0.0240372	0
44548.5	-0.0260372	-0.0240372	0
44558.5	-0.0260372	-0.0240373	0
44568.5	-0.0260372	-0.0240374	0
44578.5	-0.0260563	-0.0240373	0
44588.5	-0.0259799	-0.0240379	0
44598.5	-0.0258844	-0.0240373	0
44608.5	-0.0258654	-0.0240372	0
44618.5	-0.0258844	-0.0240378	0
44628.5	-0.0259226	-0.0240373	0
44638.5	-0.0258654	-0.0240378	0
44648.5	-0.0256554	-0.0240378	0
44658.5	-0.0258844	-0.0240368	0
44668.5	-0.0258463	-0.0240371	0
44678.5	-0.0259035	-0.0240368	0
44688.5	-0.0259608	-0.0240371	0
44698.5	-0.0259035	-0.0240379	0
44708.5	-0.0259417	-0.0240373	0
44718.5	-0.0257699	-0.0240376	0
44728.5	-0.0257317	-0.0240378	0
44738.5	-0.0257508	-0.0240373	0
44748.5	-0.0257508	-0.0240377	0
44758.5	-0.025789	-0.0240373	0
44768.5	-0.0257126	-0.0240371	0
44778.5	-0.0258844	-0.0240378	0
44788.5	-0.0256935	-0.0240374	0
44798.5	-0.0258081	-0.0240374	0
44808.5	-0.0257699	-0.0240369	0
44818.5	-0.0257126	-0.0240374	0
44828.5	-0.0258081	-0.0240374	0
44838.5	-0.0258272	-0.0240381	0
44848.5	-0.0258463	-0.0240378	0
44858.5	-0.0257699	-0.024037	0
44868.5	-0.0258463	-0.0240376	0
44878.5	-0.0256744	-0.0240374	0
44888.5	-0.025789	-0.0240374	0
44898.5	-0.0257317	-0.0240371	0
44908.5	-0.0256744	-0.0240373	0
44918.5	-0.0257508	-0.0240376	0
44928.5	-0.0257317	-0.0240374	0
44938.5	-0.0257126	-0.0240376	0
44948.5	-0.0255981	-0.0240374	0
44958.5	-0.0256554	-0.0240373	0
44968.5	-0.0257126	-0.0240374	0
44978.5	-0.0255408	-0.0240371	0
44988.5	-0.025579	-0.0240371	0
44998.5	-0.0256172	-0.0240367	0
45008.5	-0.0256363	-0.0240373	0
45018.5	-0.0255408	-0.0240369	0
45022.3	-0.025579	-0.0240373	0