File: EXPERIMENTAL/Data/Battery-cycling/JP-measurements/T-cell/2024-04-25_JP-A1-02_T-cell_Li-Cu_1-mm-PP-spacer_75muL-4MLiFSI-DME_inside-glovebox_added-OCV-0.1s_02_MB_C05.txt
time/s	Ewe/V	I/mA	error
60.053	2.9357	-0.0250364	0
60.1932	0.00852017	-3.30082	0
60.4036	0.00848196	-1.61841	0
107.413	0.00846286	-0.11626	0
437.413	0.00852017	-0.0509363	0
767.413	0.00852017	-0.039337	0
1097.41	0.00842465	-0.0332397	0
1427.41	0.00842465	-0.0291498	0
1757.41	0.00844375	-0.0263447	0
2087.41	0.00846286	-0.0239827	0
2417.41	0.00855838	-0.0222694	0
2747.41	0.00842465	-0.020863	0
3077.41	0.00848196	-0.019796	0
3407.41	0.00852017	-0.0187659	0
3737.41	0.00842465	-0.0178573	0
4067.41	0.00842465	-0.0170812	0
4397.41	0.00844375	-0.0165732	0
4727.41	0.00846286	-0.0158525	0
5057.41	0.00848196	-0.0153094	0
5387.41	0.00842465	-0.0150777	0
5717.41	0.00855838	-0.0145925	0
6047.41	0.00832912	-0.0141813	0
6377.41	0.00853928	-0.0137668	0
6707.41	0.00852017	-0.0133905	0
7037.41	0.00852017	-0.0130168	0
7367.41	0.00855838	-0.0126813	0
7697.41	0.00846286	-0.0123897	0
8027.41	0.00852017	-0.0120434	0
8357.41	0.00844375	-0.0118778	0
8687.41	0.00857749	-0.0116149	0
9017.41	0.00846286	-0.0113717	0
9347.41	0.00855838	-0.0110654	0
9677.41	0.00842465	-0.0108592	0
10007.4	0.00844375	-0.0106446	0
10337.4	0.00842465	-0.0103887	0
10667.4	0.00836733	-0.0101486	0
10997.4	0.00846286	-0.010036	0
11327.4	0.00846286	-0.00987489	0
11657.4	0.00853928	-0.00973737	0
11987.4	0.00853928	-0.0096043	0
12317.4	0.00850107	-0.00937765	0
12647.4	0.00859659	-0.00927642	0
12977.4	0.00844375	-0.00909689	0
13307.4	0.00857749	-0.00892944	0
13637.4	0.00848196	-0.00883904	0
13967.4	0.00846286	-0.00854235	0
14297.4	0.00857749	-0.00845131	0
14627.4	0.00855838	-0.00833226	0
14957.4	0.00850107	-0.00822275	0
15287.4	0.00844375	-0.00805276	0
15617.4	0.00842465	-0.00799928	0
15947.4	0.00850107	-0.00791333	0
16277.4	0.00853928	-0.00778536	0
16607.4	0.00850107	-0.00770451	0
16937.4	0.00842465	-0.0076765	0
17267.4	0.00846286	-0.00760073	0
17597.4	0.00850107	-0.00750969	0
17927.4	0.00848196	-0.00739509	0
18257.4	0.00844375	-0.00732315	0
18587.4	0.00846286	-0.00726203	0
18917.4	0.00852017	-0.0071678	0
19247.4	0.00848196	-0.00710414	0
19577.4	0.00846286	-0.00708504	0
19907.4	0.00846286	-0.00683992	0
20237.4	0.00850107	-0.00682655	0
20567.4	0.00844375	-0.00675779	0
20897.4	0.00844375	-0.00672405	0
21227.4	0.00855838	-0.0066311	0
21557.4	0.00844375	-0.0065929	0
21887.4	0.00840554	-0.00649231	0
22217.4	0.00852017	-0.00643437	0
22547.4	0.00848196	-0.00632232	0
22877.4	0.00842465	-0.00630131	0
23207.4	0.00842465	-0.00627966	0
23537.4	0.00853928	-0.00619371	0
23867.4	0.00838644	-0.00616252	0
24197.4	0.00848196	-0.00610458	0
24527.4	0.00846286	-0.00602181	0
24857.4	0.00836733	-0.00598871	0
25187.4	0.00848196	-0.00593268	0
25517.4	0.00836733	-0.00587793	0
25847.4	0.00846286	-0.00577288	0
26177.4	0.00850107	-0.00572322	0
26507.4	0.00842465	-0.00567674	0
26837.4	0.00840554	-0.00561117	0
27167.4	0.00846286	-0.00558888	0
27497.4	0.00844375	-0.00558252	0
27827.4	0.00840554	-0.00548829	0
28157.4	0.00852017	-0.00543609	0
28487.4	0.00840554	-0.00536287	0
28817.4	0.00842465	-0.00539661	0
29147.4	0.00848196	-0.00534313	0
29477.4	0.00840554	-0.0053425	0
29807.4	0.00842465	-0.00526546	0
30137.4	0.00838644	-0.00523044	0
30467.4	0.00831002	-0.0052037	0
30797.4	0.00848196	-0.0051324	0
31127.4	0.00838644	-0.00512412	0
31457.4	0.00855838	-0.00508147	0
31787.4	0.00844375	-0.00503372	0
32117.4	0.00844375	-0.00501271	0
32447.4	0.00855838	-0.00494458	0
32777.4	0.00852017	-0.00493694	0
33107.4	0.00848196	-0.00479624	0
33437.4	0.00844375	-0.00483126	0
33767.4	0.00848196	-0.00476759	0
34097.4	0.00848196	-0.00477141	0
34427.4	0.00838644	-0.00472939	0
34757.4	0.00853928	-0.00470329	0
35087.4	0.00842465	-0.00470647	0
35417.4	0.00842465	-0.00468801	0
35747.4	0.00844375	-0.00464026	0
36077.4	0.00842465	-0.0045906	0
36407.4	0.00842465	-0.00454667	0
36737.4	0.00859659	-0.00446963	0
37067.4	0.00842465	-0.00451574	0
37397.4	0.00844375	-0.00448237	0
37727.4	0.00840554	-0.00441429	0
38057.4	0.00840554	-0.00438066	0
38387.4	0.00853928	-0.00435691	0
38717.4	0.00850107	-0.0043157	0
39047.4	0.00857749	-0.004278	0
39377.4	0.00850107	-0.00425157	0
39707.4	0.00840554	-0.00422757	0
40037.4	0.00842465	-0.00419897	0
40367.4	0.00846286	-0.00414739	0
40697.4	0.00844375	-0.00416089	0
41027.4	0.00846286	-0.00411522	0
41357.4	0.00852017	-0.00409325	0
41687.4	0.00840554	-0.00404918	0
42017.4	0.00844375	-0.00402887	0
42347.4	0.00842465	-0.00400683	0
42677.4	0.00844375	-0.00396849	0
43007.4	0.00850107	-0.00392977	0
43337.4	0.00855838	-0.00391557	0
43667.4	0.00836733	-0.00390303	0
43997.4	0.00846286	-0.00389226	0
44327.4	0.00838644	-0.00385443	0
44657.4	0.00846286	-0.00383055	0
44987.4	0.00842465	-0.00380234	0
45317.4	0.00842465	-0.0037861	0
45647.4	0.00836733	-0.003747	0
45977.4	0.00842465	-0.00372363	0
46307.4	0.00848196	-0.00372439	0
46637.4	0.00846286	-0.0037014	0
46967.4	0.00846286	-0.00366064	0
47297.4	0.00848196	-0.00363466	0
47627.4	0.00846286	-0.00364262	0
47957.4	0.00842465	-0.00361046	0
48287.4	0.00834823	-0.0035797	0
48617.4	0.00853928	-0.00355002	0
48947.4	0.00850107	-0.00353926	0
49277.4	0.00840554	-0.00351569	0
49607.4	0.00842465	-0.00348411	0
49937.4	0.00848196	-0.00337667	0
50267.4	0.00852017	-0.00339425	0
50597.4	0.00842465	-0.00338902	0
50927.4	0.00842465	-0.00336629	0
51257.4	0.00846286	-0.00334712	0
51587.4	0.00842465	-0.00333719	0
51917.4	0.00842465	-0.00329719	0
52247.4	0.00836733	-0.0032821	0
52577.4	0.00850107	-0.00328694	0
52907.4	0.00846286	-0.00324452	0
53237.4	0.00857749	-0.00326828	0
53567.4	0.00850107	-0.00322924	0
53897.4	0.00840554	-0.00322211	0
54227.4	0.00842465	-0.00320109	0
54557.4	0.00844375	-0.00317963	0
54887.4	0.00844375	-0.00316855	0
55217.4	0.00853928	-0.00315734	0
55547.4	0.00840554	-0.00313753	0
55877.4	0.00852017	-0.00311104	0
56207.4	0.00846286	-0.00308678	0
56537.4	0.00850107	-0.00309951	0
56867.4	0.00848196	-0.00307245	0
57197.4	0.00846286	-0.00309321	0
57527.4	0.00846286	-0.00304895	0
57857.4	0.00853928	-0.00303761	0
58187.4	0.00855838	-0.00301698	0
58517.4	0.00853928	-0.00298488	0
58847.4	0.00844375	-0.00297017	0
59177.4	0.00842465	-0.00294011	0
59507.4	0.00850107	-0.00293928	0
59837.4	0.00838644	-0.00290591	0
60167.4	0.00857749	-0.0028982	0
60497.4	0.00834823	-0.00289782	0
60827.4	0.00848196	-0.00289406	0
61157.4	0.00853928	-0.00286725	0
61487.4	0.00848196	-0.0028556	0
61817.4	0.00846286	-0.00283719	0
62147.4	0.00846286	-0.00283305	0
62477.4	0.00842465	-0.00281204	0
62807.4	0.00840554	-0.00280955	0
63137.4	0.00840554	-0.0028021	0
63467.4	0.00844375	-0.0027937	0
63797.4	0.00844375	-0.00278701	0
64127.4	0.00850107	-0.0027595	0
64457.4	0.00857749	-0.00277001	0
64787.4	0.00844375	-0.00274784	0
65117.4	0.00853928	-0.00273855	0
65447.4	0.00844375	-0.00273396	0
65777.4	0.00844375	-0.00276873	0
66107.4	0.00855838	-0.0027339	0
66437.4	0.00836733	-0.00270925	0
66767.4	0.00852017	-0.00268715	0
67097.4	0.00848196	-0.00267327	0
67427.4	0.00842465	-0.00269893	0
67757.5	0.00848196	-0.00266639	0
68087.5	0.00842465	-0.00266461	0
68417.5	0.00846286	-0.0026634	0
68747.5	0.00852017	-0.00265474	0
69077.5	0.00848196	-0.00266136	0
69407.5	0.00855838	-0.00267289	0
69737.5	0.00848196	-0.00265461	0
70067.5	0.00840554	-0.00270053	0
70397.5	0.00848196	-0.00269352	0
70727.5	0.00848196	-0.00267244	0
71057.5	0.00846286	-0.00268002	0
71387.5	0.00853928	-0.00266009	0
71717.5	0.00846286	-0.00264206	0
72047.5	0.00840554	-0.00264888	0
72377.5	0.00857749	-0.00264276	0
72707.6	0.00832912	-0.0026399	0
73037.6	0.00850107	-0.00263162	0
73367.6	0.00853928	-0.00261812	0
73697.6	0.00848196	-0.00259334	0
74027.6	0.00848196	-0.00258214	0
74357.6	0.00853928	-0.00259194	0
74687.6	0.00842465	-0.00256169	0
75017.6	0.00855838	-0.00255991	0
75347.6	0.00850107	-0.00254787	0
75677.6	0.00848196	-0.00253577	0
76007.6	0.00848196	-0.00253628	0
76337.6	0.00848196	-0.00253042	0
76667.6	0.00853928	-0.00250329	0
76997.6	0.00846286	-0.00249737	0
77327.6	0.00852017	-0.00248018	0
77657.7	0.00848196	-0.00247285	0
77987.7	0.00846286	-0.00246496	0
78317.7	0.00853928	-0.00245075	0
78647.7	0.00846286	-0.00246304	0
78977.7	0.00850107	-0.00245508	0
79307.7	0.00848196	-0.00245559	0
79637.7	0.00852017	-0.00244241	0
79967.7	0.00846286	-0.00246642	0
80297.7	0.00848196	-0.00246164	0
80627.7	0.00853928	-0.00247011	0
80957.7	0.00850107	-0.00244413	0
81287.7	0.00852017	-0.0024498	0
81617.7	0.00842465	-0.00244827	0
81947.7	0.00850107	-0.00243127	0
82277.7	0.00852017	-0.00243942	0
82607.7	0.00848196	-0.00242585	0
82937.8	0.00853928	-0.00241885	0
83267.8	0.00855838	-0.00242331	0
83597.8	0.00853928	-0.00241776	0
83927.8	0.00852017	-0.00240407	0
84257.8	0.00852017	-0.00239904	0
84587.8	0.00852017	-0.00239013	0
84917.8	0.00846286	-0.00238433	0
85247.8	0.00852017	-0.00239038	0
85577.8	0.00848196	-0.00236058	0
85907.8	0.00855838	-0.00235191	0
86237.8	0.00844375	-0.00234701	0
86567.8	0.00848196	-0.0023316	0
86897.8	0.00853928	-0.00232236	0
87227.8	0.00852017	-0.00231663	0
87557.8	0.00846286	-0.00230606	0
87887.9	0.00846286	-0.00230536	0
88217.9	0.00857749	-0.00229281	0
88547.9	0.00846286	-0.00229352	0
88877.9	0.00855838	-0.00229734	0
89207.9	0.00842465	-0.00227282	0
89537.9	0.00844375	-0.00227059	0
89867.9	0.00850107	-0.00226155	0
90197.9	0.00848196	-0.00225257	0
90527.9	0.00853928	-0.00222926	0
90857.9	0.00852017	-0.00224212	0
91187.9	0.00848196	-0.0022213	0
91517.9	0.00848196	-0.00222448	0
91847.9	0.00850107	-0.00221697	0
92177.9	0.00853928	-0.00219531	0
92507.9	0.00848196	-0.00220862	0
92838	0.00848196	-0.00220684	0
93168	0.00846286	-0.00219378	0
93498	0.00842465	-0.00218907	0
93828	0.00848196	-0.00216258	0
94158	0.00846286	-0.00215901	0
94488	0.00848196	-0.0021301	0
94818	0.00846286	-0.00213532	0
95148	0.00850107	-0.00213564	0
95478	0.00857749	-0.0021194	0
95808	0.00855838	-0.00211908	0
96138	0.00848196	-0.00213347	0
96468	0.00857749	-0.0021045	0
96798	0.00840554	-0.00208762	0
97128	0.00838644	-0.00208374	0
97458	0.00850107	-0.0020887	0
97709.7	0.00842465	-0.00197019	0