File: EXPERIMENTAL/Data/Battery-cycling/JP-measurements/T-cell/2024-04-25_JP-A2-03_T-cell_Li-Cu_1-mm-PP-spacer_75muL-4MLiFSI-DME_inside-glovebox_added-OCV-0.1s_04_CP_C10.txt
time/s	Ewe/V	I/mA	error
3473.35	0.0035201	-0.1947	0
3473.35	-0.00969526	-0.195983	0
3473.35	-0.0133035	-0.195984	0
3473.35	-0.0160144	-0.195993	0
3473.35	-0.0184389	-0.195991	0
3473.35	-0.0207108	-0.195998	0
3473.35	-0.023899	-0.195989	0
3473.36	-0.0277935	-0.195988	0
3473.36	-0.0312108	-0.19599	0
3473.36	-0.0344563	-0.195993	0
3473.36	-0.0374536	-0.195994	0
3473.36	-0.0404318	-0.195991	0
3473.36	-0.0433527	-0.195989	0
3473.36	-0.0460255	-0.195986	0
3473.36	-0.04866	-0.195986	0
3473.36	-0.0510464	-0.195984	0
3473.36	-0.0535664	-0.195988	0
3473.36	-0.0558764	-0.19599	0
3473.36	-0.0581673	-0.195986	0
3473.37	-0.0604583	-0.19599	0
3473.37	-0.0626537	-0.195993	0
3473.37	-0.0651356	-0.195992	0
3473.37	-0.0678274	-0.195993	0
3473.37	-0.0707674	-0.195995	0
3473.37	-0.0732493	-0.195985	0
3473.37	-0.0759602	-0.195986	0
3473.37	-0.0786902	-0.195992	0
3473.37	-0.0811911	-0.195991	0
3473.37	-0.0833675	-0.195991	0
3473.38	-0.0858875	-0.195991	0
3473.38	-0.0882166	-0.195994	0
3473.38	-0.0905457	-0.195991	0
3473.38	-0.0931994	-0.195993	0
3473.38	-0.0954903	-0.195998	0
3473.38	-0.0980294	-0.195994	0
3473.38	-0.100339	-0.195989	0
3473.39	-0.102363	-0.19599	0
3473.39	-0.104482	-0.195988	0
3473.39	-0.106945	-0.195991	0
3473.39	-0.109274	-0.195993	0
3473.39	-0.111527	-0.19599	0
3473.39	-0.113932	-0.195993	0
3473.39	-0.116299	-0.19599	0
3473.4	-0.118476	-0.195996	0
3473.4	-0.121015	-0.195985	0
3473.4	-0.12344	-0.19599	0
3473.4	-0.125769	-0.19599	0
3473.4	-0.128098	-0.195986	0
3473.41	-0.130503	-0.195991	0
3473.41	-0.132794	-0.195993	0
3473.41	-0.134913	-0.195997	0
3473.41	-0.137223	-0.195988	0
3473.41	-0.139533	-0.195997	0
3473.42	-0.141652	-0.195993	0
3473.42	-0.143943	-0.19599	0
3473.42	-0.146062	-0.195993	0
3473.42	-0.148315	-0.195989	0
3473.42	-0.150339	-0.19599	0
3473.43	-0.152744	-0.195993	0
3473.43	-0.155054	-0.195991	0
3473.43	-0.157192	-0.195987	0
3473.44	-0.15935	-0.195988	0
3473.44	-0.161507	-0.195986	0
3473.44	-0.163569	-0.195989	0
3473.44	-0.165592	-0.195988	0
3473.45	-0.167712	-0.195996	0
3473.45	-0.169812	-0.195988	0
3473.46	-0.171912	-0.19599	0
3473.46	-0.174107	-0.195991	0
3473.46	-0.176417	-0.195991	0
3473.47	-0.178536	-0.19599	0
3473.47	-0.180617	-0.195985	0
3473.48	-0.182717	-0.195993	0
3473.48	-0.184741	-0.195994	0
3473.49	-0.186822	-0.195991	0
3473.49	-0.188979	-0.195988	0
3473.5	-0.191136	-0.195995	0
3473.5	-0.193179	-0.195988	0
3473.51	-0.195317	-0.195993	0
3473.52	-0.19736	-0.195997	0
3473.55	-0.197264	-0.195993	0
3473.56	-0.195126	-0.195993	0
3473.57	-0.192874	-0.195988	0
3473.57	-0.190716	-0.195993	0
3473.58	-0.188597	-0.195993	0
3473.58	-0.186306	-0.195994	0
3473.59	-0.183977	-0.195995	0
3473.59	-0.181934	-0.195991	0
3473.6	-0.179853	-0.19599	0
3473.6	-0.177715	-0.195994	0
3473.6	-0.175577	-0.195991	0
3473.61	-0.173496	-0.195984	0
3473.61	-0.17111	-0.195993	0
3473.62	-0.168895	-0.195993	0
3473.62	-0.166662	-0.195984	0
3473.63	-0.164581	-0.195995	0
3473.63	-0.162404	-0.195993	0
3473.64	-0.160094	-0.195988	0
3473.64	-0.157956	-0.195992	0
3473.65	-0.155837	-0.195984	0
3473.65	-0.153737	-0.195988	0
3473.66	-0.151503	-0.195997	0
3473.66	-0.149403	-0.19599	0
3473.67	-0.147265	-0.195995	0
3473.68	-0.145031	-0.195994	0
3473.68	-0.142893	-0.195991	0
3473.69	-0.140793	-0.195987	0
3473.7	-0.138579	-0.19599	0
3473.71	-0.136421	-0.195997	0
3473.71	-0.134302	-0.195994	0
3473.72	-0.132088	-0.195988	0
3473.73	-0.130026	-0.195984	0
3473.74	-0.127964	-0.195988	0
3473.76	-0.125864	-0.195988	0
3473.77	-0.12365	-0.195991	0
3473.78	-0.121626	-0.195987	0
3473.8	-0.119526	-0.195991	0
3473.82	-0.117502	-0.195987	0
3473.83	-0.115402	-0.195996	0
3473.86	-0.113321	-0.195984	0
3473.88	-0.111259	-0.195994	0
3473.91	-0.109236	-0.195992	0
3473.95	-0.107212	-0.195993	0
3473.99	-0.105189	-0.195993	0
3474.05	-0.103146	-0.195993	0
3474.11	-0.101122	-0.195992	0
3474.21	-0.0990794	-0.195988	0
3474.34	-0.0969985	-0.195989	0
3474.55	-0.0948794	-0.195994	0
3474.86	-0.0927794	-0.19599	0
3475.47	-0.0907366	-0.195988	0
3476.62	-0.088713	-0.195993	0
3478.84	-0.0866893	-0.195993	0
3482.73	-0.0846466	-0.19599	0
3488.27	-0.0826038	-0.195994	0
3494.92	-0.0805611	-0.195989	0
3502.2	-0.0785375	-0.195986	0
3510.43	-0.0765138	-0.195993	0
3519.56	-0.0744138	-0.195993	0
3530.41	-0.0723711	-0.195987	0
3549.44	-0.0707674	-0.195996	0
3569.44	-0.0700038	-0.195996	0
3589.44	-0.0696792	-0.195989	0
3609.44	-0.0696792	-0.195985	0
3629.44	-0.0696983	-0.195998	0
3649.44	-0.0698892	-0.195986	0
3669.44	-0.0700229	-0.195996	0
3689.44	-0.0702138	-0.195991	0
3709.44	-0.0704047	-0.195991	0
3729.44	-0.0705192	-0.195993	0
3749.44	-0.0706338	-0.195993	0
3769.44	-0.0709011	-0.195991	0
3789.44	-0.070882	-0.195993	0
3809.44	-0.0710538	-0.195992	0
3829.44	-0.0712829	-0.195993	0
3849.44	-0.0713592	-0.195998	0
3869.44	-0.0713401	-0.195998	0
3889.44	-0.0716265	-0.195997	0
3909.44	-0.0716265	-0.195991	0
3929.44	-0.0717792	-0.195998	0
3949.44	-0.0717411	-0.195991	0
3969.44	-0.0718938	-0.195997	0
3989.44	-0.0717601	-0.195995	0
4009.44	-0.071932	-0.195991	0
4029.44	-0.0720274	-0.195992	0
4049.44	-0.0718365	-0.195997	0
4069.44	-0.0718556	-0.195995	0
4089.44	-0.0718747	-0.195991	0
4109.44	-0.0716838	-0.19599	0
4129.44	-0.0716838	-0.195994	0
4149.44	-0.0717411	-0.195992	0
4169.44	-0.0717029	-0.195995	0
4189.44	-0.0717411	-0.195996	0
4209.44	-0.0716074	-0.195996	0
4229.44	-0.0715311	-0.195991	0
4249.44	-0.0714165	-0.195995	0
4269.44	-0.0714738	-0.195992	0
4289.44	-0.0714738	-0.196	0
4309.44	-0.0712065	-0.196	0
4329.44	-0.0713211	-0.195991	0
4349.44	-0.0712065	-0.195991	0
4369.44	-0.0710729	-0.19599	0
4389.44	-0.0710347	-0.195993	0
4409.44	-0.0709583	-0.195986	0
4429.44	-0.0709011	-0.195987	0
4449.44	-0.0708629	-0.195998	0
4469.44	-0.0708629	-0.195995	0
4489.44	-0.0707674	-0.19599	0
4509.44	-0.0707483	-0.195993	0
4529.44	-0.0706529	-0.195993	0
4549.44	-0.070462	-0.195992	0
4569.44	-0.070481	-0.196	0
4589.44	-0.070481	-0.195993	0
4609.44	-0.0703665	-0.195997	0
4629.44	-0.0703474	-0.19599	0
4649.44	-0.0702901	-0.195995	0
4669.44	-0.0702901	-0.195998	0
4689.44	-0.0701565	-0.19599	0
4709.44	-0.0701183	-0.195991	0
4729.44	-0.0700801	-0.195995	0
4749.44	-0.0699274	-0.195988	0
4769.44	-0.0700038	-0.195989	0
4789.44	-0.069851	-0.195997	0
4809.44	-0.0698701	-0.19599	0
4829.44	-0.0697938	-0.195991	0
4849.44	-0.0699083	-0.195986	0
4869.44	-0.0697174	-0.195991	0
4889.44	-0.069622	-0.195995	0
4909.44	-0.0697747	-0.195991	0
4929.44	-0.0695838	-0.195992	0
4949.44	-0.0696792	-0.195993	0
4969.44	-0.0695647	-0.195991	0
4989.44	-0.0693738	-0.195995	0
5009.44	-0.0694501	-0.195993	0
5029.44	-0.069412	-0.195995	0
5049.44	-0.0693738	-0.195993	0
5069.44	-0.069202	-0.195997	0
5089.44	-0.0692783	-0.195996	0
5109.44	-0.069221	-0.195985	0
5129.44	-0.0692401	-0.195999	0
5149.44	-0.0691638	-0.195993	0
5169.44	-0.0691638	-0.196	0
5189.44	-0.0690874	-0.195999	0
5209.44	-0.0690301	-0.195989	0
5229.44	-0.069011	-0.195995	0
5249.44	-0.0689538	-0.19599	0
5269.44	-0.068992	-0.195991	0
5273.35	-0.0688965	-0.195995	0