File: EXPERIMENTAL/Data/Battery-cycling/JP-measurements/T-cell/2024-04-23_JP-A2-02_T-cell_Li-Cu_1-mm-PP-spacer_75muL-4MLiFSI-DME_inside-glovebox_added-OCV-0.1s_04_CP_C10.txt
time/s	Ewe/V	I/mA	error
40200.5	-0.0202131	-0.19452	0
40200.5	-0.0631501	-0.195965	0
40200.5	-0.0772393	-0.195975	0
40200.5	-0.0840929	-0.195982	0
40200.5	-0.0883121	-0.195976	0
40200.5	-0.0913093	-0.195974	0
40200.5	-0.0936575	-0.195979	0
40200.5	-0.0973803	-0.195985	0
40200.5	-0.100778	-0.195979	0
40200.5	-0.103623	-0.195986	0
40200.5	-0.106124	-0.195984	0
40200.5	-0.108587	-0.195987	0
40200.5	-0.110744	-0.195981	0
40200.5	-0.113016	-0.195984	0
40200.5	-0.115612	-0.195981	0
40200.5	-0.118018	-0.195981	0
40200.5	-0.12071	-0.195982	0
40200.5	-0.12342	-0.195986	0
40200.5	-0.126017	-0.195986	0
40200.5	-0.128365	-0.195981	0
40200.5	-0.130637	-0.195987	0
40200.5	-0.132947	-0.195981	0
40200.5	-0.135467	-0.195985	0
40200.5	-0.137911	-0.195982	0
40200.5	-0.140221	-0.195992	0
40200.5	-0.142416	-0.195987	0
40200.5	-0.144726	-0.195978	0
40200.5	-0.147131	-0.195982	0
40200.5	-0.149594	-0.195989	0
40200.5	-0.152076	-0.195984	0
40200.5	-0.154558	-0.195991	0
40200.5	-0.156772	-0.195985	0
40200.5	-0.159292	-0.195984	0
40200.5	-0.161793	-0.195985	0
40200.5	-0.163932	-0.195984	0
40200.5	-0.166032	-0.195983	0
40200.5	-0.168151	-0.195981	0
40200.5	-0.170346	-0.195984	0
40200.5	-0.172637	-0.195982	0
40200.5	-0.175004	-0.195988	0
40200.5	-0.177333	-0.195988	0
40200.5	-0.179376	-0.195986	0
40200.5	-0.181686	-0.195985	0
40200.5	-0.183863	-0.195981	0
40200.5	-0.18602	-0.195981	0
40200.6	-0.188177	-0.195978	0
40200.6	-0.190487	-0.195988	0
40200.6	-0.19274	-0.195983	0
40200.6	-0.195241	-0.195986	0
40200.6	-0.197398	-0.195984	0
40200.6	-0.199594	-0.195981	0
40200.6	-0.201636	-0.195988	0
40200.6	-0.20387	-0.195984	0
40200.6	-0.206008	-0.195979	0
40200.6	-0.208223	-0.195984	0
40200.6	-0.210399	-0.195986	0
40200.6	-0.212575	-0.195983	0
40200.6	-0.214733	-0.195983	0
40200.6	-0.217081	-0.195986	0
40200.6	-0.219181	-0.195986	0
40200.6	-0.2213	-0.195983	0
40200.6	-0.223457	-0.195981	0
40200.6	-0.225596	-0.195985	0
40200.6	-0.227753	-0.195984	0
40200.6	-0.229834	-0.195988	0
40200.6	-0.231934	-0.195991	0
40200.6	-0.234053	-0.195986	0
40200.6	-0.236115	-0.195983	0
40200.6	-0.238272	-0.195984	0
40200.6	-0.240429	-0.195984	0
40200.6	-0.24251	-0.195986	0
40200.6	-0.244667	-0.195986	0
40200.7	-0.246825	-0.195988	0
40200.7	-0.249154	-0.195985	0
40200.7	-0.251311	-0.195987	0
40200.7	-0.253392	-0.195983	0
40200.7	-0.255492	-0.195984	0
40200.7	-0.257592	-0.19598	0
40200.7	-0.25973	-0.195984	0
40200.7	-0.261888	-0.195983	0
40200.7	-0.264083	-0.195983	0
40200.7	-0.266126	-0.195988	0
40200.7	-0.268226	-0.195986	0
40200.8	-0.270249	-0.195981	0
40200.8	-0.26813	-0.195988	0
40200.8	-0.265954	-0.195989	0
40200.8	-0.263854	-0.195988	0
40200.8	-0.261811	-0.195984	0
40200.9	-0.259749	-0.195986	0
40200.9	-0.257668	-0.195987	0
40200.9	-0.255588	-0.195985	0
40200.9	-0.253487	-0.19598	0
40200.9	-0.251177	-0.195988	0
40200.9	-0.249058	-0.195978	0
40200.9	-0.246806	-0.19599	0
40200.9	-0.244782	-0.19598	0
40200.9	-0.242625	-0.195986	0
40200.9	-0.240391	-0.195983	0
40200.9	-0.238272	-0.195983	0
40200.9	-0.236229	-0.195979	0
40201	-0.233996	-0.195985	0
40201	-0.231876	-0.195984	0
40201	-0.229796	-0.195984	0
40201	-0.227619	-0.195987	0
40201	-0.225576	-0.195984	0
40201	-0.223496	-0.195987	0
40201	-0.221396	-0.195988	0
40201	-0.219334	-0.195988	0
40201	-0.217196	-0.195979	0
40201.1	-0.215076	-0.195979	0
40201.1	-0.2129	-0.195982	0
40201.1	-0.210781	-0.195987	0
40201.1	-0.208738	-0.195984	0
40201.1	-0.206562	-0.195984	0
40201.2	-0.204462	-0.195985	0
40201.2	-0.2024	-0.195988	0
40201.2	-0.200376	-0.195983	0
40201.2	-0.198353	-0.195986	0
40201.3	-0.196272	-0.195981	0
40201.3	-0.194229	-0.195988	0
40201.3	-0.192148	-0.195991	0
40201.4	-0.190124	-0.195988	0
40201.4	-0.188101	-0.19599	0
40201.5	-0.18602	-0.195982	0
40201.5	-0.183901	-0.195988	0
40201.6	-0.181877	-0.19599	0
40201.6	-0.179796	-0.195982	0
40201.7	-0.177773	-0.195984	0
40201.8	-0.175711	-0.195983	0
40201.9	-0.173573	-0.19599	0
40202	-0.171492	-0.195991	0
40202.2	-0.169411	-0.195981	0
40202.4	-0.167387	-0.195986	0
40202.6	-0.165363	-0.19599	0
40202.9	-0.163321	-0.195984	0
40203.4	-0.161259	-0.195993	0
40204	-0.159178	-0.195985	0
40205.1	-0.157097	-0.195987	0
40206.5	-0.155054	-0.195988	0
40208.1	-0.153031	-0.195983	0
40209.8	-0.150988	-0.195988	0
40211.6	-0.148888	-0.195983	0
40213.2	-0.146864	-0.195987	0
40214.8	-0.144783	-0.195984	0
40216.4	-0.14276	-0.195982	0
40218.1	-0.14066	-0.195988	0
40219.9	-0.138636	-0.195985	0
40221.6	-0.136555	-0.195983	0
40223.5	-0.134493	-0.195981	0
40225.6	-0.13247	-0.195984	0
40227.7	-0.130427	-0.195981	0
40230.1	-0.128365	-0.19599	0
40232.5	-0.126341	-0.195982	0
40235.4	-0.12428	-0.195988	0
40238.5	-0.122237	-0.195983	0
40241.9	-0.120194	-0.195991	0
40245.7	-0.118132	-0.195989	0
40250.1	-0.116109	-0.195988	0
40255.1	-0.114066	-0.195986	0
40261	-0.111966	-0.195982	0
40268	-0.109885	-0.195984	0
40276	-0.107861	-0.195987	0
40285.3	-0.105838	-0.195985	0
40296.5	-0.103795	-0.195987	0
40309.6	-0.101771	-0.195985	0
40324.8	-0.0997476	-0.195986	0
40343.4	-0.0977239	-0.195983	0
40362.5	-0.0960248	-0.195984	0
40382.5	-0.0948412	-0.195986	0
40402.5	-0.0938675	-0.195988	0
40422.5	-0.0928748	-0.195989	0
40442.5	-0.0921684	-0.19599	0
40462.5	-0.0916339	-0.195991	0
40482.5	-0.091233	-0.195988	0
40502.5	-0.0906984	-0.195987	0
40522.5	-0.0904502	-0.195995	0
40542.5	-0.0900302	-0.195987	0
40562.5	-0.0896484	-0.195985	0
40582.5	-0.0894575	-0.19599	0
40602.5	-0.089343	-0.195988	0
40622.5	-0.088923	-0.195989	0
40642.5	-0.0886366	-0.195983	0
40662.5	-0.0885602	-0.195982	0
40682.5	-0.0884266	-0.19599	0
40702.5	-0.0882357	-0.195994	0
40722.5	-0.0880639	-0.195987	0
40742.5	-0.087873	-0.195988	0
40762.5	-0.0876248	-0.195983	0
40782.5	-0.0875484	-0.195987	0
40802.5	-0.0873766	-0.195984	0
40822.5	-0.087262	-0.195986	0
40842.5	-0.0871284	-0.195987	0
40862.5	-0.0869375	-0.195985	0
40882.5	-0.0867275	-0.19598	0
40902.5	-0.0866511	-0.195986	0
40922.5	-0.0863839	-0.195988	0
40942.5	-0.0862884	-0.195985	0
40962.5	-0.0861739	-0.195986	0
40982.5	-0.085983	-0.195987	0
41002.5	-0.0858302	-0.195987	0
41022.5	-0.0856966	-0.195988	0
41042.5	-0.0855057	-0.195989	0
41062.5	-0.0852575	-0.19599	0
41082.5	-0.0852193	-0.195984	0
41102.5	-0.0850475	-0.195991	0
41122.5	-0.0848566	-0.195989	0
41142.5	-0.0848184	-0.195981	0
41162.5	-0.0845511	-0.19599	0
41182.5	-0.0844939	-0.195988	0
41202.5	-0.0841693	-0.195986	0
41222.5	-0.0841502	-0.195989	0
41242.5	-0.0840357	-0.195986	0
41262.5	-0.0837875	-0.195983	0
41282.5	-0.0837111	-0.195985	0
41302.5	-0.0836157	-0.19599	0
41322.5	-0.0835202	-0.195987	0
41342.5	-0.0832148	-0.195983	0
41362.5	-0.0833102	-0.195991	0
41382.5	-0.0830048	-0.195985	0
41402.5	-0.0829284	-0.195983	0
41422.5	-0.0828711	-0.195985	0
41429.9	-0.0834057	-0.196011	0
41449.9	-0.0826993	-0.195991	0
41469.9	-0.0825084	-0.195986	0
41489.9	-0.0825084	-0.195987	0
41509.9	-0.0823557	-0.195987	0
41529.9	-0.0822602	-0.195984	0
41549.9	-0.0821457	-0.195986	0
41569.9	-0.0820311	-0.195994	0
41589.9	-0.0820884	-0.195984	0
41609.9	-0.0818975	-0.195986	0
41629.9	-0.0817829	-0.19599	0
41649.9	-0.0816111	-0.195983	0
41669.9	-0.0817447	-0.195987	0
41689.9	-0.0815729	-0.195991	0
41709.9	-0.0814584	-0.195987	0
41729.9	-0.0812675	-0.195993	0
41749.9	-0.0812293	-0.195982	0
41769.9	-0.0812866	-0.195982	0
41789.9	-0.0810384	-0.195985	0
41809.9	-0.0811338	-0.195989	0
41829.9	-0.0809811	-0.195988	0
41849.9	-0.0808666	-0.195993	0
41869.9	-0.0807902	-0.195989	0
41889.9	-0.0806566	-0.195985	0
41909.9	-0.080752	-0.195988	0
41929.9	-0.0806184	-0.195984	0
41949.9	-0.0806566	-0.195983	0
41969.9	-0.0804847	-0.195986	0
41989.9	-0.0803893	-0.195989	0
42000.5	-0.0804275	-0.195984	0