File: EXPERIMENTAL/Data/Battery-cycling/JP-measurements/T-cell/2024-04-23_JP-A2-02_T-cell_Li-Cu_1-mm-PP-spacer_75muL-4MLiFSI-DME_inside-glovebox_added-OCV-0.1s_02_MB_C10.txt
time/s	Ewe/V	I/mA	error
60.053	3.08908	-0.0250155	0
60.1536	0.00842157	-8.63571	0
60.1668	0.00865066	-7.82679	0
60.181	0.00863157	-7.07076	0
60.1978	0.00853611	-6.29873	0
60.2176	0.00861248	-5.54538	0
60.243	0.00861248	-4.80611	0
60.279	0.00859339	-4.07901	0
60.3354	0.00863157	-3.35892	0
60.433	0.00861248	-2.65023	0
60.6406	0.00861248	-1.94474	0
61.2474	0.00853611	-1.23956	0
65.0528	0.00859339	-0.543047	0
158.962	0.00859339	-0.153691	0
298.962	0.00863157	-0.101665	0
438.962	0.00876521	-0.0800295	0
578.962	0.00868884	-0.0675129	0
718.962	0.00865066	-0.0592979	0
858.962	0.0085743	-0.0534628	0
998.962	0.00865066	-0.0490976	0
1138.96	0.00865066	-0.045725	0
1278.96	0.00866975	-0.0431423	0
1418.96	0.00866975	-0.0408683	0
1558.96	0.00865066	-0.0388056	0
1698.96	0.00861248	-0.0370012	0
1838.96	0.00868884	-0.0354627	0
1978.96	0.00866975	-0.0340833	0
2118.96	0.00863157	-0.0328719	0
2258.96	0.00861248	-0.0317298	0
2398.96	0.00861248	-0.0307843	0
2538.96	0.00876521	-0.0298071	0
2678.96	0.00859339	-0.0290232	0
2818.96	0.00861248	-0.0281846	0
2958.96	0.00865066	-0.0274192	0
3098.96	0.00872702	-0.0267524	0
3238.96	0.0087843	-0.0261639	0
3378.96	0.00866975	-0.0255461	0
3518.96	0.00866975	-0.0249486	0
3658.96	0.00868884	-0.0244224	0
3798.96	0.00868884	-0.0239338	0
3938.96	0.00870793	-0.0234159	0
4078.96	0.00868884	-0.0228961	0
4218.96	0.00866975	-0.022527	0
4358.96	0.00870793	-0.0220626	0
4498.96	0.00861248	-0.0217069	0
4638.96	0.00868884	-0.0213023	0
4778.96	0.00872702	-0.0209294	0
4918.96	0.00866975	-0.0205852	0
5058.96	0.00876521	-0.0202741	0
5198.96	0.00863157	-0.019989	0
5338.96	0.00866975	-0.0196003	0
5478.96	0.00868884	-0.0193846	0
5618.96	0.00872702	-0.0190665	0
5758.96	0.00865066	-0.0187801	0
5898.96	0.00872702	-0.0184843	0
6038.96	0.00861248	-0.0182444	0
6178.96	0.00872702	-0.0179721	0
6318.96	0.00868884	-0.0177831	0
6458.96	0.00865066	-0.0175305	0
6598.96	0.00861248	-0.0172875	0
6738.96	0.00855521	-0.0170763	0
6878.96	0.00866975	-0.0168275	0
7018.96	0.00876521	-0.0165743	0
7158.96	0.00866975	-0.0163713	0
7298.96	0.00872702	-0.016225	0
7438.96	0.00866975	-0.0160105	0
7578.96	0.00865066	-0.0158082	0
7718.96	0.00865066	-0.0156701	0
7858.96	0.00868884	-0.015499	0
7998.96	0.00863157	-0.0153056	0
8138.96	0.00874612	-0.015116	0
8278.96	0.00868884	-0.0149932	0
8418.96	0.00870793	-0.0147647	0
8558.96	0.00865066	-0.014635	0
8698.96	0.00874612	-0.0145071	0
8838.96	0.00870793	-0.0143149	0
8978.96	0.00876521	-0.0141889	0
9118.96	0.00868884	-0.0140833	0
9258.96	0.00866975	-0.0139287	0
9398.96	0.00870793	-0.0137385	0
9538.96	0.00872702	-0.0136424	0
9678.96	0.00876521	-0.0135559	0
9818.96	0.00870793	-0.0134025	0
9958.96	0.00865066	-0.0133103	0
10099	0.0085743	-0.0132008	0
10239	0.00870793	-0.0130456	0
10379	0.00868884	-0.0129629	0
10519	0.00870793	-0.012793	0
10659	0.00876521	-0.0127415	0
10799	0.00865066	-0.0126288	0
10939	0.00876521	-0.012541	0
11079	0.00863157	-0.0123903	0
11219	0.00866975	-0.0123241	0
11359	0.00866975	-0.0122293	0
11499	0.0087843	-0.0121307	0
11639	0.00870793	-0.0120473	0
11779	0.00863157	-0.0120174	0
11919	0.00868884	-0.0118952	0
12059	0.00872702	-0.0117661	0
12199	0.00853611	-0.0117375	0
12339	0.00866975	-0.0116121	0
12479	0.00880339	-0.011565	0
12619	0.00866975	-0.0115122	0
12759	0.00872702	-0.0114028	0
12899	0.00868884	-0.011357	0
13039	0.00868884	-0.0112584	0
13179	0.00866975	-0.0112068	0
13319	0.00866975	-0.0110885	0
13459	0.00870793	-0.011084	0
13599	0.00866975	-0.0109409	0
13739	0.00870793	-0.0108378	0
13879	0.00865066	-0.0107786	0
14019	0.00866975	-0.010666	0
14159	0.00874612	-0.0105935	0
14299	0.00863157	-0.0105368	0
14439	0.00866975	-0.0104669	0
14579	0.00866975	-0.0104026	0
14719	0.00861248	-0.0103409	0
14859	0.00872702	-0.0102823	0
14999	0.00872702	-0.0101074	0
15139	0.00870793	-0.0101016	0
15279	0.00863157	-0.0100393	0
15419	0.00868884	-0.00996103	0
15559	0.00870793	-0.00993876	0
15699	0.00868884	-0.00983633	0
15839	0.00865066	-0.00975361	0
15979	0.00872702	-0.00969762	0
16119	0.00872702	-0.0096569	0
16259	0.00863157	-0.009599	0
16399	0.00872702	-0.00952902	0
16539	0.0085743	-0.00946094	0
16679	0.0085743	-0.00935087	0
16819	0.00870793	-0.00931142	0
16959	0.00863157	-0.00925097	0
17099	0.0087843	-0.00918099	0
17239	0.00870793	-0.00908109	0
17379	0.00865066	-0.00907282	0
17519	0.00874612	-0.00898947	0
17659	0.00880339	-0.00897611	0
17799	0.00865066	-0.00887813	0
17939	0.00866975	-0.0088724	0
18079	0.00868884	-0.00877315	0
18219	0.00865066	-0.00875979	0
18359	0.00870793	-0.00870889	0
18499	0.00872702	-0.00869871	0
18639	0.00866975	-0.00865226	0
18779	0.00863157	-0.0086109	0
18919	0.00859339	-0.00852628	0
19059	0.00863157	-0.00848238	0
19199	0.00870793	-0.00842003	0
19339	0.00872702	-0.00835895	0
19479	0.00872702	-0.00830868	0
19619	0.00872702	-0.00826669	0
19759	0.00872702	-0.00822915	0
19899	0.0087843	-0.00818016	0
20039	0.00874612	-0.00812608	0
20179	0.00866975	-0.00806245	0
20319	0.00870793	-0.00804845	0
20459	0.00868884	-0.00801282	0
20599	0.00868884	-0.0079492	0
20739	0.0087843	-0.00788621	0
20879	0.00870793	-0.00784231	0
21019	0.00872702	-0.00782131	0
21159	0.00870793	-0.00773415	0
21299	0.00870793	-0.00773351	0
21439	0.00866975	-0.00768579	0
21579	0.00870793	-0.00760308	0
21719	0.00874612	-0.00756999	0
21859	0.00872702	-0.00756808	0
21999	0.00870793	-0.00753436	0
22139	0.00872702	-0.00747265	0
22279	0.00868884	-0.00741984	0
22419	0.00876521	-0.00739884	0
22559	0.00868884	-0.00736512	0
22699	0.00872702	-0.00730531	0
22839	0.00872702	-0.00726332	0
22979	0.00863157	-0.00724232	0
23119	0.00866975	-0.0071876	0
23259	0.00866975	-0.00716343	0
23399	0.00872702	-0.00711316	0
23539	0.00870793	-0.00709471	0
23679	0.00870793	-0.00709089	0
23819	0.00874612	-0.00706926	0
23959	0.00872702	-0.00700882	0
24099	0.00870793	-0.00695537	0
24239	0.00870793	-0.00692356	0
24379	0.00872702	-0.00690511	0
24519	0.00863157	-0.00683957	0
24659	0.00872702	-0.00684466	0
24799	0.00870793	-0.00681221	0
24939	0.00872702	-0.00672123	0
25079	0.0087843	-0.00669578	0
25219	0.00876521	-0.00668496	0
25359	0.0087843	-0.00669514	0
25499	0.00872702	-0.00663088	0
25639	0.0087843	-0.00661307	0
25779	0.00868884	-0.00662579	0
25919	0.00880339	-0.00659589	0
26059	0.00865066	-0.00652908	0
26199	0.00863157	-0.00651254	0
26339	0.00872702	-0.00646291	0
26479	0.00874612	-0.00640883	0
26619	0.0087843	-0.00635984	0
26759	0.00863157	-0.00637002	0
26899	0.00865066	-0.00639483	0
27039	0.00863157	-0.00632166	0
27179	0.00863157	-0.00629621	0
27319	0.00872702	-0.00633311	0
27459	0.00866975	-0.00620968	0
27599	0.00865066	-0.0061836	0
27739	0.00865066	-0.00617723	0
27879	0.00870793	-0.00614033	0
28019	0.00865066	-0.00615306	0
28159	0.00863157	-0.00609961	0
28299	0.00872702	-0.0061047	0
28439	0.00863157	-0.00606016	0
28579	0.00870793	-0.00607289	0
28719	0.00870793	-0.00602262	0
28859	0.0087843	-0.00600481	0
28999	0.0087843	-0.00601244	0
29139	0.00866975	-0.00597745	0
29279	0.00868884	-0.00594309	0
29419	0.00870793	-0.00592146	0
29559	0.00865066	-0.00589601	0
29699	0.00863157	-0.0059151	0
29839	0.0087843	-0.00591382	0
29979	0.00866975	-0.00585147	0
30119	0.00882248	-0.00584384	0
30259	0.00872702	-0.00583556	0
30399	0.00866975	-0.00580439	0
30539	0.00874612	-0.00577767	0
30679	0.00868884	-0.00576112	0
30819	0.00870793	-0.00572867	0
30959	0.00872702	-0.00571086	0
31099	0.00872702	-0.00572931	0
31239	0.00870793	-0.00566887	0
31379	0.00876521	-0.00564405	0
31519	0.00863157	-0.00561924	0
31659	0.00866975	-0.00562878	0
31799	0.0087843	-0.0055607	0
31939	0.00872702	-0.00556198	0
32079	0.00874612	-0.00557279	0
32219	0.00870793	-0.00558424	0
32359	0.00882248	-0.00553207	0
32499	0.00861248	-0.00553653	0
32639	0.00868884	-0.00549644	0
32779	0.00882248	-0.00544491	0
32919	0.00872702	-0.00544109	0
33059	0.00865066	-0.00543409	0
33199	0.00866975	-0.00545063	0
33339	0.00876521	-0.00544872	0
33479	0.00870793	-0.00540482	0
33619	0.00865066	-0.00535965	0
33759	0.00868884	-0.00537174	0
33899	0.00870793	-0.00533865	0
34039	0.00872702	-0.00529602	0
34179	0.00866975	-0.00535965	0
34319	0.00880339	-0.00527821	0
34459	0.00868884	-0.00525403	0
34599	0.00866975	-0.00526866	0
34739	0.00870793	-0.00522222	0
34879	0.00866975	-0.00525785	0
35019	0.00868884	-0.00524194	0
35159	0.00859339	-0.00521458	0
35299	0.0087843	-0.00515923	0
35439	0.00874612	-0.00517259	0
35579	0.00859339	-0.00517132	0
35719	0.00866975	-0.0051325	0
35859	0.00876521	-0.00512423	0
35999	0.00866975	-0.00510769	0
36139	0.00872702	-0.0051306	0
36279	0.00868884	-0.00514523	0
36419	0.00866975	-0.00519613	0
36559	0.00868884	-0.00515032	0
36699	0.00866975	-0.00507397	0
36839	0.00866975	-0.00500907	0
36979	0.00870793	-0.00501034	0
37119	0.0087843	-0.0049289	0
37259	0.00866975	-0.00495944	0
37399	0.00868884	-0.00500653	0
37539	0.00876521	-0.00492636	0
37679	0.00874612	-0.00495881	0
37819	0.00863157	-0.00492254	0
37959	0.00872702	-0.00489391	0
38099	0.00866975	-0.00486019	0
38239	0.00870793	-0.00487355	0
38379	0.00880339	-0.00484937	0
38519	0.00876521	-0.00481501	0
38659	0.00863157	-0.00482201	0
38799	0.00868884	-0.00481183	0
38939	0.0087843	-0.00479656	0
39079	0.00872702	-0.00480165	0
39219	0.00876521	-0.00478765	0
39359	0.00866975	-0.00477302	0
39499	0.00876521	-0.00473485	0
39639	0.00868884	-0.00472276	0
39779	0.00880339	-0.0047463	0
39919	0.00863157	-0.00472212	0
40059	0.00863157	-0.0046674	0
40199	0.00870793	-0.00470049	0
40200.3	0.00882248	-0.0064381	0