File: EXPERIMENTAL/Data/Battery-cycling/JP-measurements/T-cell/2024-04-22_JP-A1_T-cell_Li-Cu_1-mm-PP-spacer_75muL-4MLiFSI-DME_inside-glovebox_added-OCV-0.1s_02_MB_C05.txt
time/s	Ewe/V	I/mA	error
60.053	3.00013	-0.0250364	0
60.4112	0.00840554	-2.50459	0
497.755	0.00834823	-0.0614108	0
1387.75	0.00848196	-0.0388277	0
2277.75	0.00840554	-0.0304206	0
3167.75	0.00853928	-0.0258073	0
4057.75	0.00846286	-0.0224865	0
4947.75	0.00848196	-0.0198794	0
5837.75	0.00850107	-0.0179325	0
6727.75	0.00840554	-0.0163879	0
7617.75	0.00838644	-0.0148332	0
8507.75	0.00838644	-0.0138496	0
9397.75	0.00850107	-0.013353	0
10287.8	0.00857749	-0.0125629	0
11177.8	0.00848196	-0.0118142	0
12067.8	0.00859659	-0.0112068	0
12957.8	0.00838644	-0.0106338	0
13847.8	0.00855838	-0.0101321	0
14737.8	0.00842465	-0.00967306	0
15627.8	0.00850107	-0.0093299	0
16517.8	0.00840554	-0.00896701	0
17407.8	0.00857749	-0.0086213	0
18297.8	0.00840554	-0.00830424	0
19187.8	0.00848196	-0.00806868	0
20077.8	0.00840554	-0.00784648	0
20967.8	0.00842465	-0.00755999	0
21857.8	0.00857749	-0.00736008	0
22747.8	0.00834823	-0.00718436	0
23637.8	0.00848196	-0.00698572	0
24527.8	0.00853928	-0.00670686	0
25417.8	0.00848196	-0.00650249	0
26307.8	0.00844375	-0.00631659	0
27197.8	0.00844375	-0.00609503	0
28087.8	0.00846286	-0.00595751	0
28977.8	0.00846286	-0.00567929	0
29867.8	0.00840554	-0.00558379	0
30757.8	0.00857749	-0.00538643	0
31647.8	0.00840554	-0.00527374	0
32537.8	0.00857749	-0.00507765	0
33427.8	0.00840554	-0.00496623	0
34317.8	0.00853928	-0.00479433	0
35207.8	0.00840554	-0.00466063	0
36097.8	0.00859659	-0.00457405	0
36987.8	0.00836733	-0.00446575	0
37877.8	0.00848196	-0.0043173	0
38767.8	0.00844375	-0.00417324	0
39657.8	0.00834823	-0.00408714	0
40547.8	0.00844375	-0.00395155	0
41437.8	0.00840554	-0.00386373	0
42327.8	0.00846286	-0.00375534	0
43217.8	0.00853928	-0.00366172	0
44107.8	0.00846286	-0.00359568	0
44997.8	0.00848196	-0.00347404	0
45887.8	0.00834823	-0.003418	0
46777.8	0.00855838	-0.0033389	0
47667.8	0.00846286	-0.00325236	0
48557.8	0.00853928	-0.00320593	0
49447.8	0.00844375	-0.00311976	0
50337.8	0.00836733	-0.00306633	0
51227.8	0.00838644	-0.0029787	0
52117.8	0.00840554	-0.00298539	0
53007.8	0.00838644	-0.0028726	0
53897.8	0.00844375	-0.00286343	0
54787.8	0.00842465	-0.00276529	0
55677.8	0.00846286	-0.00273211	0
56567.8	0.00848196	-0.00269881	0
57457.8	0.00857749	-0.00269505	0
58347.8	0.00850107	-0.00263226	0
59237.8	0.00850107	-0.00257411	0
60127.8	0.00846286	-0.00254781	0
61017.8	0.00846286	-0.00253265	0
61907.8	0.00840554	-0.00250062	0
62797.8	0.00842465	-0.00247037	0
63687.8	0.00848196	-0.00236745	0
64577.8	0.00836733	-0.00235714	0
65467.8	0.00853928	-0.00232434	0
66357.8	0.00834823	-0.00233459	0
67247.8	0.00848196	-0.00230383	0
68137.8	0.00844375	-0.00225709	0
69027.8	0.00832912	-0.0022576	0
69917.8	0.00838644	-0.0022441	0
70807.9	0.00850107	-0.00223645	0
71697.9	0.00842465	-0.00223677	0
72587.9	0.00846286	-0.002192	0
73477.9	0.00844375	-0.00220315	0
74367.9	0.00844375	-0.00227651	0
75257.9	0.00852017	-0.00222518	0
76148	0.00850107	-0.00223945	0
77038	0.00850107	-0.00218035	0
77928	0.00848196	-0.00222665	0
78818	0.00846286	-0.00215271	0
79708	0.00855838	-0.00217716	0
80598.1	0.00852017	-0.00215398	0
81488.1	0.00844375	-0.00212704	0
82378.1	0.00853928	-0.00213029	0
83268.1	0.00855838	-0.00216831	0
84158.1	0.00842465	-0.00193866	0
85048.1	0.00852017	-0.00197598	0
85938.2	0.00846286	-0.00197713	0
86828.2	0.00848196	-0.00202604	0
87718.2	0.00850107	-0.00209711	0
88608.2	0.00846286	-0.00214379	0
89498.2	0.00844375	-0.00209768	0
90388.2	0.00848196	-0.00214424	0
91278.3	0.00850107	-0.00218016	0
92168.3	0.00855838	-0.00213882	0
93058.3	0.00850107	-0.00213577	0
93948.3	0.00846286	-0.00211609	0
94838.3	0.00848196	-0.00208724	0
95728.4	0.00844375	-0.00210322	0
96618.4	0.00842465	-0.00210934	0
97508.4	0.00846286	-0.00207164	0
98398.4	0.00842465	-0.00199496	0
99288.4	0.00838644	-0.00198999	0
100178	0.00840554	-0.00191854	0
101068	0.00852017	-0.00187237	0
101958	0.00846286	-0.00182849	0
102848	0.00842465	-0.0018353	0
103739	0.00850107	-0.00177162	0
104629	0.00853928	-0.00176843	0
105519	0.00844375	-0.00173869	0
106409	0.00848196	-0.00172869	0
107299	0.00838644	-0.0017029	0
108189	0.00842465	-0.00163941	0
109079	0.00844375	-0.00162648	0
109969	0.00834823	-0.00158521	0
110859	0.00844375	-0.00155744	0
111749	0.00838644	-0.00151146	0
112639	0.00846286	-0.00149191	0
113529	0.00846286	-0.00145867	0
114419	0.00844375	-0.00145485	0
115309	0.00852017	-0.00140899	0
116199	0.00846286	-0.00139963	0
117089	0.00842465	-0.00139709	0
117979	0.00844375	-0.00138556	0
118869	0.00842465	-0.0013662	0
119759	0.00848196	-0.00134588	0
120649	0.00846286	-0.00133646	0
121539	0.00846286	-0.0013092	0
122429	0.00832912	-0.00131964	0
123319	0.00842465	-0.0013127	0
124209	0.00855838	-0.00129538	0
125099	0.00838644	-0.00132589	0
125989	0.00846286	-0.00130901	0
126879	0.00836733	-0.00131703	0
127769	0.00840554	-0.00145529	0
128659	0.00844375	-0.00178868	0
129549	0.00853928	-0.00171838	0
130439	0.00850107	-0.00169035	0
131329	0.00848196	-0.00166514	0
132219	0.00836733	-0.0016231	0
133109	0.00840554	-0.00159368	0
133999	0.00848196	-0.00162183	0
134889	0.00844375	-0.00155974	0
135779	0.00844375	-0.00154534	0
136669	0.00848196	-0.00156171	0
137559	0.00842465	-0.00152318	0
138449	0.00840554	-0.00150344	0
139339	0.00842465	-0.00152293	0
140229	0.00848196	-0.00152605	0
141119	0.00846286	-0.00151618	0
142009	0.00836733	-0.0015	0
142899	0.00846286	-0.00147115	0
143789	0.00848196	-0.00149491	0
144679	0.00846286	-0.00145052	0
145569	0.00836733	-0.0014102	0
146459	0.00848196	-0.00141524	0
147349	0.00842465	-0.0014225	0
148239	0.00846286	-0.00135009	0
149129	0.00848196	-0.00136747	0
150019	0.00846286	-0.00135907	0
150909	0.00848196	-0.00132862	0
151799	0.00844375	-0.00134435	0
152689	0.00850107	-0.00134983	0
153579	0.00844375	-0.00130245	0
154469	0.00840554	-0.00131512	0
155359	0.00838644	-0.0012792	0
156249	0.00846286	-0.00131156	0
157139	0.00846286	-0.00129487	0
158029	0.00846286	-0.00130086	0
158919	0.00850107	-0.00134021	0
159809	0.00850107	-0.0013497	0
160699	0.00848196	-0.00132168	0
161589	0.00836733	-0.00129188	0
162479	0.00850107	-0.00132824	0
163369	0.00842465	-0.00129283	0
164259	0.00840554	-0.00131703	0
165149	0.00844375	-0.00129602	0
166039	0.00853928	-0.00132136	0
166929	0.00850107	-0.00127112	0
167819	0.00850107	-0.00127946	0
168709	0.00850107	-0.00126927	0
169599	0.00836733	-0.001258	0
170489	0.00838644	-0.00125908	0
171379	0.00852017	-0.00123437	0
172269	0.00844375	-0.00125876	0
173159	0.00850107	-0.00128723	0
174049	0.00844375	-0.00127494	0
174939	0.00850107	-0.00126417	0
175829	0.00853928	-0.00129697	0
176719	0.00846286	-0.00128646	0
177609	0.00850107	-0.00126863	0
178499	0.00844375	-0.00128111	0
179389	0.00846286	-0.00129958	0
180279	0.00844375	-0.00129946	0
181169	0.00855838	-0.00133951	0
182059	0.00853928	-0.00139033	0
182949	0.00852017	-0.0013953	0
183839	0.00840554	-0.00143574	0
184729	0.00844375	-0.00146281	0
185619	0.00846286	-0.00148255	0
186509	0.00852017	-0.0014865	0
187399	0.00846286	-0.00149783	0
188289	0.00850107	-0.00149465	0
189179	0.00852017	-0.00145427	0
190069	0.00848196	-0.00146408	0
190959	0.00840554	-0.0014465	0
191849	0.00838644	-0.0014295	0
192739	0.00852017	-0.00141422	0
193629	0.00832912	-0.00139033	0
194519	0.00848196	-0.00138944	0
195409	0.00844375	-0.00137671	0
196299	0.00853928	-0.00137849	0
197189	0.00850107	-0.00133448	0
198079	0.00846286	-0.00132397	0
198969	0.00844375	-0.00132175	0
199859	0.00844375	-0.00131621	0
200749	0.00848196	-0.00132098	0
201639	0.00850107	-0.00131595	0
202529	0.00842465	-0.00131175	0
203419	0.00850107	-0.00128379	0
204309	0.00853928	-0.00132117	0
205199	0.00842465	-0.00131671	0
206089	0.00855838	-0.00128506	0
206979	0.00852017	-0.00126456	0
207869	0.0086157	-0.00125621	0
208759	0.00855838	-0.0012636	0
209649	0.00857749	-0.00125348	0
210539	0.00848196	-0.00125596	0
211429	0.00846286	-0.00126386	0
212319	0.00844375	-0.00126882	0
213209	0.00859659	-0.00124239	0
214099	0.00853928	-0.0012694	0
214989	0.00853928	-0.00127099	0
215879	0.00844375	-0.0012331	0
216769	0.00842465	-0.00121826	0
217659	0.00846286	-0.00122284	0
218549	0.00852017	-0.00121106	0
219439	0.00842465	-0.00124271	0
220329	0.00844375	-0.00121144	0
221219	0.00855838	-0.00118954	0
222109	0.00834823	-0.00120215	0
222999	0.00848196	-0.00119234	0
223889	0.00844375	-0.00118075	0
224779	0.00852017	-0.00118298	0
225669	0.00850107	-0.00117973	0
226559	0.00852017	-0.00118852	0
227449	0.00848196	-0.00117132	0
228339	0.00840554	-0.00114973	0
229229	0.00846286	-0.00116336	0
230119	0.00846286	-0.0011305	0
231009	0.00850107	-0.00112541	0
231899	0.00852017	-0.0011256	0
232789	0.00846286	-0.00113534	0
233679	0.00850107	-0.00111375	0
234569	0.00852017	-0.00111955	0
235459	0.00844375	-0.00111426	0
236349	0.00852017	-0.00111751	0
237239	0.00840554	-0.00110401	0
238129	0.00842465	-0.00110496	0
239019	0.00840554	-0.0010963	0
239909	0.00855838	-0.00111267	0
240799	0.00838644	-0.00110089	0
241689	0.00848196	-0.00110216	0
242579	0.00836733	-0.0011121	0
243469	0.00850107	-0.00112152	0
244359	0.00850107	-0.00116292	0
245249	0.00848196	-0.00114763	0
246139	0.00848196	-0.00115132	0
247029	0.00855838	-0.0011724	0
247919	0.00857749	-0.00120412	0
248809	0.00846286	-0.0012194	0
249699	0.00848196	-0.00116718	0
250589	0.00844375	-0.00117871	0
251479	0.00846286	-0.00116846	0
252369	0.00846286	-0.00112795	0
253259	0.00848196	-0.00114241	0
254149	0.00840554	-0.00111388	0
255039	0.00842465	-0.0011205	0
255929	0.00853928	-0.00111986	0
256819	0.00853928	-0.0011298	0
257709	0.00853928	-0.0011384	0
258599	0.00844375	-0.00115687	0
259489	0.00846286	-0.00112063	0
260379	0.00850107	-0.00109757	0
261269	0.00844375	-0.00108637	0
262159	0.00850107	-0.00107439	0
263049	0.00846286	-0.00106484	0
263901	0.00852017	-0.00105898	0