File: EXPERIMENTAL/Data/Battery-cycling/JP-measurements/T-cell/2024-04-22_JP-A2_T-cell_Li-Cu_1-mm-PP-spacer_75muL-4MLiFSI-DME_inside-glovebox_02_MB_C10.txt
time/s	Ewe/V	I/mA	error
60.053	3.04658	-0.0250155	0
60.156	0.00876521	-7.17125	0
60.1722	0.00865066	-6.34372	0
60.1916	0.00865066	-5.54238	0
60.2172	0.00865066	-4.73773	0
60.2538	0.00866975	-3.95519	0
60.314	0.00865066	-3.18648	0
60.429	0.00866975	-2.42873	0
60.6976	0.00865066	-1.67314	0
61.6516	0.00874612	-0.919788	0
75.1162	0.00874612	-0.254441	0
223.915	0.00865066	-0.0870355	0
373.915	0.00866975	-0.0646876	0
523.915	0.00874612	-0.0534119	0
673.915	0.00861248	-0.0459223	0
823.915	0.00874612	-0.0412246	0
973.915	0.00863157	-0.0373142	0
1123.91	0.0087843	-0.0342564	0
1273.91	0.00884157	-0.0317438	0
1423.91	0.00865066	-0.0297307	0
1573.91	0.00866975	-0.0277087	0
1723.91	0.00872702	-0.02612	0
1873.91	0.00876521	-0.0243117	0
2023.91	0.00874612	-0.0225372	0
2173.91	0.00868884	-0.0216923	0
2323.91	0.00872702	-0.0208931	0
2473.91	0.00872702	-0.0202149	0
2623.91	0.00876521	-0.0201608	0
2773.91	0.00861248	-0.0193967	0
2923.91	0.00872702	-0.0189029	0
3073.91	0.0087843	-0.0184111	0
3223.91	0.00866975	-0.0179091	0
3373.91	0.00861248	-0.0174459	0
3523.91	0.00866975	-0.0170909	0
3673.91	0.00868884	-0.0167079	0
3823.91	0.00865066	-0.0163344	0
3973.91	0.00865066	-0.0160474	0
4123.91	0.00874612	-0.015721	0
4273.91	0.00868884	-0.0154684	0
4423.91	0.00866975	-0.0151713	0
4573.91	0.00882248	-0.0149155	0
4723.91	0.00866975	-0.0146712	0
4873.91	0.0087843	-0.0144205	0
5023.91	0.00870793	-0.0141947	0
5173.91	0.00880339	-0.0139548	0
5323.91	0.00866975	-0.0137499	0
5473.91	0.0087843	-0.0135641	0
5623.91	0.00865066	-0.0134223	0
5773.91	0.0087843	-0.0131989	0
5923.91	0.00865066	-0.0129508	0
6073.91	0.00861248	-0.0128115	0
6223.91	0.00880339	-0.0126352	0
6373.91	0.00863157	-0.0127357	0
6523.91	0.00863157	-0.0126276	0
6673.91	0.00870793	-0.0124329	0
6823.91	0.00866975	-0.012361	0
6973.91	0.00870793	-0.0122026	0
7123.91	0.00880339	-0.0120759	0
7273.91	0.00866975	-0.0119595	0
7423.91	0.00868884	-0.011817	0
7573.91	0.00876521	-0.0116668	0
7723.91	0.00868884	-0.0115924	0
7873.91	0.00861248	-0.0114569	0
8023.91	0.00874612	-0.0113474	0
8173.91	0.00872702	-0.0112463	0
8323.91	0.00872702	-0.0111146	0
8473.91	0.00859339	-0.0110688	0
8623.91	0.00866975	-0.0109103	0
8773.91	0.00865066	-0.0108524	0
8923.91	0.00868884	-0.0107455	0
9073.91	0.0087843	-0.0106431	0
9223.91	0.00868884	-0.0106068	0
9373.91	0.00870793	-0.0104586	0
9523.91	0.00868884	-0.0104166	0
9673.91	0.00866975	-0.0103218	0
9823.91	0.00882248	-0.010241	0
9973.91	0.00868884	-0.0101538	0
10123.9	0.00876521	-0.0100857	0
10273.9	0.00863157	-0.00996103	0
10423.9	0.00861248	-0.00989168	0
10573.9	0.00870793	-0.0098236	0
10723.9	0.00865066	-0.00975361	0
10873.9	0.00876521	-0.00969444	0
11023.9	0.00872702	-0.00965945	0
11173.9	0.00870793	-0.00957165	0
11323.9	0.00876521	-0.00950357	0
11473.9	0.00863157	-0.00936296	0
11623.9	0.00872702	-0.00934832	0
11773.9	0.00866975	-0.00921662	0
11923.9	0.00866975	-0.00915045	0
12073.9	0.00866975	-0.00913772	0
12223.9	0.00872702	-0.00902701	0
12373.9	0.00863157	-0.00897866	0
12523.9	0.00868884	-0.00891949	0
12673.9	0.00868884	-0.00880878	0
12823.9	0.00870793	-0.00872034	0
12973.9	0.00880339	-0.00869489	0
13123.9	0.00866975	-0.00859627	0
13273.9	0.00868884	-0.00850528	0
13423.9	0.00874612	-0.00844929	0
13573.9	0.00870793	-0.00836467	0
13723.9	0.00865066	-0.00834813	0
13873.9	0.00863157	-0.00825715	0
14023.9	0.00870793	-0.0081827	0
14173.9	0.00872702	-0.00813753	0
14323.9	0.00874612	-0.00808281	0
14473.9	0.00866975	-0.00805482	0
14623.9	0.00872702	-0.00798865	0
14773.9	0.00865066	-0.00794729	0
14923.9	0.00861248	-0.00788112	0
15073.9	0.00866975	-0.00779904	0
15223.9	0.00870793	-0.00776278	0
15373.9	0.00868884	-0.00771251	0
15523.9	0.00876521	-0.00765716	0
15673.9	0.00872702	-0.00763044	0
15823.9	0.00870793	-0.00762853	0
15973.9	0.00863157	-0.00756045	0
16123.9	0.00868884	-0.00754836	0
16273.9	0.00861248	-0.00751909	0
16423.9	0.00863157	-0.00745865	0
16573.9	0.00874612	-0.00738421	0
16723.9	0.00876521	-0.00736257	0
16873.9	0.00870793	-0.00732058	0
17023.9	0.00872702	-0.00725314	0
17173.9	0.00866975	-0.00725123	0
17323.9	0.00872702	-0.00719842	0
17473.9	0.00861248	-0.00713734	0
17623.9	0.00861248	-0.00714497	0
17773.9	0.00868884	-0.00710044	0
17923.9	0.00874612	-0.00709089	0
18073.9	0.0087843	-0.00702854	0
18223.9	0.00866975	-0.00701518	0
18373.9	0.00870793	-0.00700309	0
18523.9	0.00868884	-0.00694774	0
18673.9	0.0087843	-0.00695792	0
18823.9	0.0087843	-0.00687902	0
18973.9	0.00876521	-0.00684657	0
19123.9	0.00872702	-0.00680649	0
19273.9	0.00872702	-0.00681603	0
19423.9	0.00870793	-0.00675431	0
19573.9	0.00880339	-0.00669578	0
19723.9	0.00865066	-0.0066716	0
19873.9	0.00876521	-0.00668369	0
20023.9	0.0087843	-0.00665442	0
20173.9	0.00868884	-0.00664297	0
20323.9	0.00863157	-0.00661243	0
20473.9	0.00872702	-0.0065978	0
20623.9	0.00872702	-0.00649854	0
20773.9	0.0087843	-0.00647691	0
20923.9	0.00865066	-0.00646609	0
21073.9	0.00870793	-0.006496	0
21223.9	0.00868884	-0.00647754	0
21373.9	0.00874612	-0.00638147	0
21523.9	0.00863157	-0.00635729	0
21673.9	0.00874612	-0.00637065	0
21823.9	0.00865066	-0.0063293	0
21973.9	0.00872702	-0.00633057	0
22123.9	0.00874612	-0.00627903	0
22273.9	0.00870793	-0.0063452	0
22423.9	0.00865066	-0.00631848	0
22573.9	0.00872702	-0.00629558	0
22723.9	0.00865066	-0.00627331	0
22873.9	0.0087843	-0.00625549	0
23023.9	0.00876521	-0.00624977	0
23173.9	0.00874612	-0.00623704	0
23323.9	0.00876521	-0.00619378	0
23473.9	0.00870793	-0.00617914	0
23623.9	0.0087843	-0.00616133	0
23773.9	0.00868884	-0.00615369	0
23923.9	0.00859339	-0.00610152	0
24073.9	0.00872702	-0.00607861	0
24223.9	0.00874612	-0.00605507	0
24373.9	0.00868884	-0.0060258	0
24523.9	0.00874612	-0.00599399	0
24673.9	0.00872702	-0.00594755	0
24823.9	0.00872702	-0.00599972	0
24973.9	0.00863157	-0.0059819	0
25123.9	0.00872702	-0.00593546	0
25273.9	0.00868884	-0.00593673	0
25423.9	0.00866975	-0.00587247	0
25573.9	0.00874612	-0.00584829	0
25723.9	0.00865066	-0.00585083	0
25873.9	0.00874612	-0.00581902	0
26023.9	0.00866975	-0.00580439	0
26173.9	0.00874612	-0.00578912	0
26323.9	0.00874612	-0.00573058	0
26473.9	0.00872702	-0.00577067	0
26623.9	0.00863157	-0.00576112	0
26773.9	0.00872702	-0.00574204	0
26923.9	0.00870793	-0.00572295	0
27073.9	0.00874612	-0.0057045	0
27223.9	0.00872702	-0.00568605	0
27373.9	0.00859339	-0.00566823	0
27523.9	0.00876521	-0.00561924	0
27673.9	0.00882248	-0.00564914	0
27823.9	0.00876521	-0.00559252	0
27973.9	0.00863157	-0.00555752	0
28123.9	0.00872702	-0.00555434	0
28273.9	0.00876521	-0.00555689	0
28423.9	0.00870793	-0.00557979	0
28573.9	0.00859339	-0.00548372	0
28723.9	0.00874612	-0.00548181	0
28873.9	0.00866975	-0.00549899	0
29023.9	0.00872702	-0.00544809	0
29173.9	0.00870793	-0.00544872	0
29323.9	0.00872702	-0.00543472	0
29473.9	0.00872702	-0.00542136	0
29623.9	0.00868884	-0.00543727	0
29773.9	0.00865066	-0.00538192	0
29923.9	0.00865066	-0.00537174	0
30073.9	0.00880339	-0.00535265	0
30223.9	0.00865066	-0.0053202	0
30373.9	0.00870793	-0.00529602	0
30523.9	0.00870793	-0.00530175	0
30673.9	0.00868884	-0.00527566	0
30823.9	0.00874612	-0.0053132	0
30973.9	0.00872702	-0.00521649	0
31123.9	0.00863157	-0.00524321	0
31273.9	0.00876521	-0.00520186	0
31423.9	0.00872702	-0.00519995	0
31573.9	0.00872702	-0.00516241	0
31723.9	0.0087843	-0.00516559	0
31873.9	0.00874612	-0.00511087	0
32023.9	0.00866975	-0.0051325	0
32173.9	0.00874612	-0.00509115	0
32323.9	0.00866975	-0.00500207	0
32473.9	0.00868884	-0.0050377	0
32623.9	0.00870793	-0.00501734	0
32773.9	0.00868884	-0.00496326	0
32923.9	0.00870793	-0.00493208	0
33073.9	0.00876521	-0.00496008	0
33223.9	0.00870793	-0.00490027	0
33373.9	0.00874612	-0.0049289	0
33523.9	0.00872702	-0.00489136	0
33673.9	0.00870793	-0.00485764	0
33823.9	0.00872702	-0.0048621	0
33973.9	0.00870793	-0.00480038	0
34123.9	0.00859339	-0.00478893	0
34273.9	0.00872702	-0.0048201	0
34423.9	0.00868884	-0.00473994	0
34573.9	0.00872702	-0.00478193	0
34723.9	0.00870793	-0.00473612	0
34873.9	0.00866975	-0.00472148	0
35023.9	0.00874612	-0.00467949	0
35173.9	0.00868884	-0.00470685	0
35323.9	0.00870793	-0.00466104	0
35473.9	0.00876521	-0.00461905	0
35623.9	0.00868884	-0.00463177	0
35773.9	0.00868884	-0.00458596	0
35923.9	0.00861248	-0.00460887	0
36073.9	0.00882248	-0.00460123	0
36223.9	0.00868884	-0.00457069	0
36373.9	0.00865066	-0.00456942	0
36523.9	0.00872702	-0.00453061	0
36673.9	0.00861248	-0.00456524	0
36823.9	0.00870793	-0.00454678	0
36973.9	0.00874612	-0.0045303	0
37123.9	0.00870793	-0.00452279	0
37273.9	0.00880339	-0.00449924	0
37423.9	0.00866975	-0.00449275	0
37573.9	0.00876521	-0.00448492	0
37723.9	0.00870793	-0.00447455	0
37873.9	0.00865066	-0.00446411	0
38023.9	0.00874612	-0.00443624	0
38173.9	0.00866975	-0.00444184	0
38323.9	0.00863157	-0.00441123	0
38473.9	0.00868884	-0.00440009	0
38623.9	0.00866975	-0.00438832	0
38773.9	0.00876521	-0.00436846	0
38923.9	0.00870793	-0.00435121	0
39073.9	0.00876521	-0.00433129	0
39223.9	0.00876521	-0.0043262	0
39373.9	0.00866975	-0.00430984	0
39523.9	0.00880339	-0.00430405	0
39673.9	0.00872702	-0.00426771	0
39823.9	0.00863157	-0.00426886	0
39973.9	0.0087843	-0.00426237	0
40123.9	0.00874612	-0.00424455	0
40273.9	0.00874612	-0.00422615	0
40423.9	0.0087843	-0.00422355	0
40573.9	0.00870793	-0.00420668	0
40723.9	0.00876521	-0.00418969	0
40873.9	0.00870793	-0.00417702	0
41023.9	0.00865066	-0.00415965	0
41173.9	0.00874612	-0.00414106	0
41323.9	0.00866975	-0.00413858	0
41473.9	0.00876521	-0.00412433	0
41623.9	0.00868884	-0.00415277	0
41773.9	0.00865066	-0.00407679	0
41923.9	0.00865066	-0.00408289	0
42073.9	0.00865066	-0.0040659	0
42223.9	0.00870793	-0.00404312	0
42373.9	0.00880339	-0.00402676	0
42523.9	0.00876521	-0.00400882	0
42673.9	0.00870793	-0.00399882	0
42823.9	0.00884157	-0.00398425	0
42973.9	0.00874612	-0.00398056	0
43123.9	0.00876521	-0.00395956	0
43222.3	0.00870793	-0.00393334	0