File: EXPERIMENTAL/Data/Battery-cycling/JP-measurements/T-cell/2024-04-23_JP-A3-02_T-cell_Li-Cu_1-mm-PP-spacer_75muL-4MLiFSI-DME_inside-glovebox_added-OCV-0.1s_02_MB_C10.txt
time/s	Ewe/V	I/mA	error
60.053	2.77806	-0.0250155	0
60.1432	0.00861248	-8.89762	0
60.144	0.00853611	-8.84467	0
60.1448	0.00859339	-8.79101	0
60.1456	0.00874612	-8.73927	0
60.1464	0.0085743	-8.68688	0
60.1472	0.00866975	-8.63476	0
60.148	0.00855521	-8.58244	0
60.1488	0.00859339	-8.53121	0
60.1496	0.00855521	-8.47984	0
60.1504	0.00855521	-8.42963	0
60.1512	0.00872702	-8.37935	0
60.1522	0.00866975	-8.31671	0
60.1532	0.00868884	-8.2563	0
60.1542	0.00859339	-8.19461	0
60.1552	0.00865066	-8.13433	0
60.1562	0.00855521	-8.07462	0
60.1572	0.00870793	-8.01567	0
60.1582	0.0085743	-7.95698	0
60.1592	0.00855521	-7.8988	0
60.1602	0.00865066	-7.84279	0
60.1612	0.00859339	-7.78632	0
60.1622	0.00866975	-7.72993	0
60.1632	0.00870793	-7.67538	0
60.1642	0.00855521	-7.62077	0
60.1652	0.00863157	-7.56705	0
60.1662	0.00872702	-7.51339	0
60.1672	0.00866975	-7.46082	0
60.1682	0.00853611	-7.40856	0
60.1692	0.00861248	-7.35612	0
60.1702	0.00863157	-7.30508	0
60.1712	0.00870793	-7.25454	0
60.1724	0.00853611	-7.19528	0
60.1734	0.00855521	-7.14525	0
60.1746	0.00855521	-7.08714	0
60.1758	0.00870793	-7.02972	0
60.177	0.0085743	-6.97281	0
60.1782	0.00865066	-6.91597	0
60.1794	0.00861248	-6.8606	0
60.1806	0.00859339	-6.80554	0
60.1818	0.0085743	-6.75092	0
60.183	0.0085743	-6.69727	0
60.1842	0.00861248	-6.64565	0
60.1854	0.00851702	-6.59244	0
60.1866	0.00859339	-6.54089	0
60.1878	0.00865066	-6.48927	0
60.189	0.0085743	-6.43855	0
60.1904	0.00865066	-6.38088	0
60.1918	0.00863157	-6.32301	0
60.1932	0.00855521	-6.26655	0
60.1946	0.00859339	-6.21041	0
60.196	0.00855521	-6.15472	0
60.1974	0.00861248	-6.10068	0
60.1988	0.00863157	-6.04804	0
60.2002	0.00870793	-5.99432	0
60.2016	0.00863157	-5.94156	0
60.203	0.00849793	-5.89039	0
60.2044	0.00870793	-5.83941	0
60.2058	0.00870793	-5.78913	0
60.2074	0.0085743	-5.73279	0
60.209	0.00859339	-5.67684	0
60.2106	0.00863157	-5.6223	0
60.2122	0.0085743	-5.56864	0
60.2138	0.0085743	-5.51575	0
60.2154	0.00849793	-5.46381	0
60.217	0.00866975	-5.41188	0
60.2188	0.00861248	-5.3558	0
60.2206	0.0085743	-5.30029	0
60.2224	0.00861248	-5.24524	0
60.2242	0.00866975	-5.1919	0
60.226	0.00859339	-5.13945	0
60.2278	0.00861248	-5.08815	0
60.2296	0.00865066	-5.03711	0
60.2316	0.00861248	-4.98294	0
60.2336	0.00868884	-4.92859	0
60.2356	0.00870793	-4.87652	0
60.2376	0.00866975	-4.82523	0
60.2396	0.00865066	-4.77495	0
60.2418	0.00868884	-4.71982	0
60.244	0.00865066	-4.66712	0
60.2462	0.00866975	-4.61621	0
60.2484	0.00859339	-4.56529	0
60.2508	0.00851702	-4.5124	0
60.2532	0.0085743	-4.46015	0
60.2556	0.00868884	-4.40821	0
60.2582	0.00865066	-4.35475	0
60.2608	0.00855521	-4.30275	0
60.2634	0.00865066	-4.2524	0
60.2662	0.00865066	-4.19836	0
60.269	0.00865066	-4.14764	0
60.2718	0.00859339	-4.09723	0
60.2748	0.0085743	-4.04504	0
60.278	0.00847884	-3.99113	0
60.2812	0.00866975	-3.93964	0
60.2844	0.00865066	-3.88892	0
60.2878	0.00866975	-3.83717	0
60.2912	0.00859339	-3.78683	0
60.2948	0.00872702	-3.73528	0
60.2986	0.00855521	-3.68347	0
60.3024	0.00855521	-3.63293	0
60.3064	0.00868884	-3.58081	0
60.3106	0.00853611	-3.52951	0
60.3148	0.00859339	-3.47949	0
60.3192	0.00861248	-3.42902	0
60.3238	0.00863157	-3.37835	0
60.3286	0.00870793	-3.32655	0
60.3336	0.00863157	-3.27627	0
60.3388	0.00855521	-3.22541	0
60.3442	0.00861248	-3.17494	0
60.3498	0.00861248	-3.12454	0
60.3556	0.00865066	-3.07426	0
60.3616	0.00859339	-3.02417	0
60.3682	0.0085743	-2.97287	0
60.3748	0.00859339	-2.92285	0
60.3818	0.00859339	-2.87238	0
60.3892	0.00863157	-2.82089	0
60.397	0.00855521	-2.77016	0
60.4052	0.00853611	-2.71925	0
60.4136	0.00866975	-2.6691	0
60.4224	0.00865066	-2.61888	0
60.4318	0.00859339	-2.56873	0
60.4418	0.00855521	-2.51788	0
60.4522	0.00866975	-2.4676	0
60.463	0.0085743	-2.41745	0
60.4748	0.00855521	-2.36679	0
60.4872	0.00863157	-2.31613	0
60.5002	0.00865066	-2.26508	0
60.5142	0.00874612	-2.2148	0
60.5288	0.00866975	-2.16427	0
60.5446	0.00861248	-2.1131	0
60.5614	0.00865066	-2.06276	0
60.5788	0.00859339	-2.01254	0
60.5976	0.00865066	-1.96213	0
60.618	0.00855521	-1.91115	0
60.6394	0.00855521	-1.86043	0
60.6628	0.00866975	-1.81034	0
60.6872	0.00861248	-1.76019	0
60.714	0.00865066	-1.70953	0
60.7422	0.00866975	-1.65868	0
60.7736	0.00863157	-1.60859	0
60.8064	0.00865066	-1.55825	0
60.8426	0.00851702	-1.50822	0
60.882	0.00855521	-1.45775	0
60.925	0.00861248	-1.40728	0
60.9712	0.00853611	-1.35618	0
61.023	0.00863157	-1.30615	0
61.0788	0.00863157	-1.256	0
61.1402	0.00847884	-1.20553	0
61.2092	0.00859339	-1.15544	0
61.2844	0.00859339	-1.10535	0
61.3698	0.00855521	-1.05495	0
61.4654	0.00853611	-1.0048	0
61.5714	0.00859339	-0.954391	0
61.6928	0.00855521	-0.904303	0
61.832	0.00861248	-0.854152	0
61.9938	0.00861248	-0.803682	0
62.18	0.00845975	-0.753212	0
62.4024	0.00866975	-0.702933	0
62.6666	0.00872702	-0.652845	0
62.984	0.00868884	-0.602821	0
63.3782	0.00863157	-0.55267	0
63.87	0.00855521	-0.502646	0
64.5128	0.00863157	-0.452494	0
65.0528	0.00868884	-0.424073	0
65.0534	0.00865066	-0.423666	0
66.1222	0.00866975	-0.373638	0
67.6664	0.00859339	-0.323584	0
70.0496	0.00853611	-0.273531	0
74.1142	0.00859339	-0.223528	0
81.9748	0.00865066	-0.173519	0
91.9748	0.0085743	-0.142173	0
101.975	0.0085743	-0.123758	0
111.975	0.00863157	-0.111515	0
121.975	0.00865066	-0.102696	0
131.975	0.00861248	-0.0960268	0
141.975	0.0085743	-0.0905798	0
151.975	0.00863157	-0.0863164	0
161.975	0.00868884	-0.0825303	0
171.975	0.00866975	-0.0793041	0
181.975	0.0085743	-0.0766506	0
191.975	0.00870793	-0.0741053	0
201.975	0.00866975	-0.0720436	0
211.975	0.00863157	-0.0698292	0
221.975	0.00866975	-0.0680729	0
231.975	0.00866975	-0.0663293	0
241.975	0.00865066	-0.0648531	0
251.975	0.00865066	-0.0632686	0
261.975	0.00859339	-0.0619514	0
271.975	0.00868884	-0.0610096	0
281.975	0.00865066	-0.0595652	0
291.975	0.00865066	-0.0585216	0
301.975	0.00865066	-0.0575417	0
311.975	0.00865066	-0.0566317	0
321.975	0.00865066	-0.0555181	0
331.975	0.00872702	-0.0547482	0
341.975	0.00861248	-0.05394	0
351.975	0.00880339	-0.0531446	0
361.975	0.00870793	-0.0522665	0
371.975	0.00866975	-0.0516365	0
381.975	0.00865066	-0.0508347	0
391.975	0.00859339	-0.0503702	0
401.975	0.00851702	-0.0495303	0
411.975	0.00866975	-0.0488558	0
421.975	0.00861248	-0.0484931	0
431.975	0.00853611	-0.0477995	0
441.975	0.00853611	-0.0473731	0
451.975	0.00849793	-0.0467941	0
461.975	0.0085743	-0.0463041	0
471.975	0.00872702	-0.045725	0
481.975	0.0085743	-0.0450887	0
491.975	0.00868884	-0.0451949	0
501.975	0.00861248	-0.0447507	0
511.975	0.00861248	-0.0442316	0
521.975	0.00866975	-0.0438091	0
531.975	0.00866975	-0.0435075	0
541.975	0.0085743	-0.0431487	0
551.975	0.00866975	-0.0426206	0
561.975	0.00868884	-0.042214	0
571.975	0.00859339	-0.0419557	0
581.975	0.00859339	-0.0416197	0
591.975	0.00861248	-0.0412119	0
601.975	0.00865066	-0.040918	0
611.975	0.00872702	-0.040589	0
621.975	0.00874612	-0.0401207	0
631.975	0.00861248	-0.0398249	0
641.975	0.00868884	-0.0395952	0
649.891	0.00853611	-0.0391854	0
649.892	0.00872702	-0.0392153	0