File: EXPERIMENTAL/Data/Battery-cycling/JP-measurements/T-cell/2024-04-26_JP-A2-04_T-cell_Li-Cu_1-mm-PP-spacer_75muL-4MLiFSI-DME_inside-glovebox_added-OCV-0.1s_02_MB_C10.txt
time/s	Ewe/V	I/mA	error
60.053	2.966	-0.0250155	0
60.1714	0.00863157	-9.53035	0
60.1984	0.00863157	-8.53229	0
60.2296	0.0085743	-7.51766	0
60.2676	0.00859339	-6.524	0
60.3142	0.00863157	-5.52977	0
60.3774	0.00863157	-4.55044	0
60.4872	0.00859339	-3.58731	0
60.7154	0.00882248	-2.62806	0
61.2778	0.00876521	-1.672	0
64.3108	0.00851702	-0.716825	0
171.059	0.00866975	-0.144337	0
361.059	0.00866975	-0.0943787	0
551.059	0.00868884	-0.0749007	0
741.059	0.00859339	-0.063485	0
931.059	0.00859339	-0.0558554	0
1121.06	0.00868884	-0.050103	0
1311.06	0.00861248	-0.0457632	0
1501.06	0.00870793	-0.0426308	0
1691.06	0.00870793	-0.0397313	0
1881.06	0.00870793	-0.0373486	0
2071.06	0.00863157	-0.0352699	0
2261.06	0.00865066	-0.0334795	0
2451.06	0.00866975	-0.0318233	0
2641.06	0.00868884	-0.0305419	0
2831.06	0.00863157	-0.0293585	0
3021.06	0.00872702	-0.0283341	0
3211.06	0.00853611	-0.0273002	0
3401.06	0.00870793	-0.026594	0
3591.06	0.00861248	-0.0258362	0
3781.06	0.00874612	-0.025128	0
3971.06	0.00865066	-0.0245293	0
4161.06	0.00865066	-0.0239103	0
4351.06	0.00865066	-0.0233853	0
4541.06	0.00870793	-0.0228223	0
4731.06	0.00861248	-0.0223553	0
4921.06	0.00874612	-0.0219334	0
5111.06	0.00868884	-0.0215803	0
5301.06	0.0085743	-0.0211642	0
5491.06	0.00863157	-0.0208073	0
5681.06	0.00872702	-0.020416	0
5871.06	0.00865066	-0.0201888	0
6061.06	0.00870793	-0.0198077	0
6251.06	0.00870793	-0.0193973	0
6441.06	0.00872702	-0.0191714	0
6631.06	0.00874612	-0.0188877	0
6821.06	0.00872702	-0.018525	0
7011.06	0.00874612	-0.0183558	0
7201.06	0.00872702	-0.0181051	0
7391.06	0.00865066	-0.0178576	0
7581.06	0.00868884	-0.0175382	0
7771.06	0.00872702	-0.017416	0
7961.06	0.00863157	-0.0172086	0
8151.06	0.00868884	-0.017026	0
8341.06	0.00870793	-0.0167015	0
8531.06	0.00872702	-0.0165844	0
8721.06	0.00884157	-0.0164508	0
8911.06	0.00870793	-0.0162319	0
9101.06	0.00865066	-0.0161518	0
9291.06	0.00863157	-0.0158317	0
9481.06	0.00861248	-0.0157758	0
9671.06	0.00866975	-0.0154882	0
9861.06	0.00865066	-0.0153062	0
10051.1	0.00872702	-0.0153317	0
10241.1	0.00872702	-0.015184	0
10431.1	0.00865066	-0.0149206	0
10621.1	0.00870793	-0.0148386	0
10811.1	0.00865066	-0.014731	0
11001.1	0.00866975	-0.0145472	0
11191.1	0.00866975	-0.0144097	0
11381.1	0.00870793	-0.0142939	0
11571.1	0.00865066	-0.0141819	0
11761.1	0.00866975	-0.0140642	0
11951.1	0.00866975	-0.013888	0
12141.1	0.00870793	-0.0137945	0
12331.1	0.00870793	-0.0136456	0
12521.1	0.00866975	-0.0136023	0
12711.1	0.00884157	-0.0134592	0
12901.1	0.00872702	-0.0133841	0
13091.1	0.00874612	-0.0132237	0
13281.1	0.0087843	-0.0131639	0
13471.1	0.00874612	-0.0130011	0
13661.1	0.00880339	-0.0129393	0
13851.1	0.00863157	-0.0127001	0
14041.1	0.00872702	-0.012562	0
14231.1	0.00866975	-0.0125601	0
14421.1	0.00859339	-0.0124042	0
14611.1	0.00866975	-0.0122649	0
14801.1	0.00870793	-0.0122019	0
14991.1	0.00870793	-0.0120702	0
15181.1	0.00865066	-0.0119951	0
15371.1	0.00868884	-0.0118857	0
15561.1	0.00866975	-0.0117737	0
15751.1	0.00870793	-0.0117063	0
15941.1	0.00865066	-0.0116083	0
16131.1	0.00865066	-0.0114772	0
16321.1	0.00868884	-0.0113799	0
16511.1	0.00861248	-0.0112857	0
16701.1	0.00863157	-0.0112183	0
16891.1	0.00868884	-0.0111572	0
17081.1	0.00861248	-0.0109727	0
17271.1	0.00859339	-0.0109714	0
17461.1	0.0087843	-0.0109078	0
17651.1	0.00868884	-0.0108155	0
17841.1	0.00866975	-0.0107443	0
18031.1	0.00866975	-0.0105941	0
18221.1	0.00870793	-0.0105254	0
18411.1	0.00874612	-0.0104783	0
18601.1	0.00866975	-0.0103981	0
18791.1	0.00874612	-0.0103682	0
18981.1	0.00868884	-0.0102327	0
19171.1	0.00874612	-0.0102473	0
19361.1	0.00868884	-0.0101315	0
19551.1	0.00859339	-0.0100915	0
19741.1	0.00859339	-0.00994195	0
19931.1	0.00865066	-0.00989105	0
20121.1	0.00872702	-0.00983187	0
20311.1	0.00863157	-0.00979752	0
20501.1	0.00866975	-0.00980706	0
20691.1	0.00863157	-0.00972371	0
20881.1	0.00872702	-0.00962764	0
21071.1	0.00876521	-0.00961937	0
21261.1	0.00870793	-0.00958564	0
21451.1	0.00865066	-0.00950738	0
21641.1	0.00866975	-0.00941004	0
21831.1	0.00861248	-0.00929042	0
22021.1	0.00863157	-0.00933178	0
22211.1	0.00859339	-0.00915872	0
22401.1	0.00859339	-0.00922489	0
22591.1	0.00870793	-0.00914345	0
22781.1	0.00868884	-0.00905628	0
22971.1	0.00866975	-0.00902829	0
23161.1	0.00865066	-0.00893221	0
23351.1	0.00868884	-0.00887368	0
23541.1	0.00868884	-0.0088145	0
23731.1	0.00872702	-0.00875661	0
23921.1	0.00861248	-0.00872288	0
24111.1	0.00866975	-0.00863572	0
24301.1	0.00872702	-0.00853137	0
24491.1	0.00865066	-0.0086179	0
24681.1	0.0087843	-0.00847538	0
24871.1	0.00866975	-0.00838885	0
25061.1	0.0085743	-0.00833413	0
25251.1	0.00866975	-0.00831186	0
25441.1	0.00866975	-0.00822215	0
25631.1	0.00861248	-0.00815153	0
25821.1	0.00861248	-0.00815789	0
26011.1	0.00865066	-0.00805354	0
26201.1	0.00861248	-0.0080739	0
26391.1	0.00849793	-0.00793138	0
26581.1	0.00865066	-0.00793202	0
26771.1	0.00874612	-0.00786521	0
26961.1	0.00872702	-0.00775005	0
27151.1	0.00866975	-0.00778886	0
27341.1	0.0085743	-0.00773605	0
27531.1	0.00865066	-0.00764507	0
27721.1	0.00870793	-0.00763362	0
27911.1	0.00870793	-0.0075789	0
28101.1	0.00870793	-0.00755409	0
28291.1	0.00870793	-0.00737084	0
28481.1	0.00870793	-0.00741665	0
28671.1	0.00863157	-0.00737021	0
28861.1	0.00868884	-0.00726268	0
29051.1	0.00870793	-0.00718697	0
29241.1	0.00865066	-0.00719015	0
29431.1	0.00863157	-0.00708389	0
29621.1	0.00868884	-0.00698846	0
29811.1	0.00870793	-0.00707499	0
30001.1	0.00870793	-0.00690702	0
30191.1	0.00863157	-0.00696619	0
30381.1	0.00863157	-0.00680776	0
30571.1	0.00863157	-0.00680649	0
30761.1	0.00865066	-0.00674095	0
30951.1	0.00870793	-0.0066716	0
31141.1	0.00861248	-0.00664424	0
31331.1	0.00868884	-0.00659398	0
31521.1	0.00865066	-0.00661307	0
31711.1	0.00866975	-0.00647882	0
31901.1	0.00872702	-0.00652717	0
32091.1	0.00859339	-0.00645082	0
32281.1	0.00866975	-0.00645464	0
32471.1	0.00865066	-0.00642728	0
32661.1	0.00866975	-0.00635538	0
32851.1	0.00865066	-0.00631085	0
33041.1	0.00870793	-0.00626567	0
33231.1	0.00863157	-0.00631021	0
33421.1	0.00861248	-0.00617023	0
33611.1	0.00868884	-0.00624404	0
33801.1	0.00874612	-0.00615115	0
33991.1	0.0087843	-0.00606589	0
34181.1	0.00874612	-0.00606907	0
34371.1	0.00866975	-0.00597172	0
34561.1	0.00861248	-0.00594246	0
34751.1	0.0085743	-0.00597999	0
34941.1	0.00884157	-0.00595391	0
35131.1	0.00872702	-0.00587947	0
35321.1	0.0087843	-0.00585974	0
35511.1	0.00870793	-0.00576812	0
35701.1	0.00868884	-0.00583684	0
35891.1	0.00876521	-0.00577767	0
36081.1	0.00868884	-0.0057414	0
36271.1	0.00872702	-0.00570831	0
36461.1	0.00866975	-0.00567014	0
36651.1	0.00863157	-0.00560524	0
36841.1	0.00866975	-0.00563387	0
37031.1	0.00870793	-0.0055537	0
37221.1	0.00868884	-0.00552698	0
37411.1	0.00863157	-0.00552571	0
37601.1	0.00865066	-0.00543536	0
37791.1	0.00868884	-0.00545509	0
37981.1	0.00870793	-0.00535456	0
38171.1	0.00870793	-0.00539655	0
38361.1	0.00874612	-0.00538064	0
38551.1	0.00855521	-0.00533611	0
38741.1	0.00870793	-0.00526039	0
38931.1	0.00870793	-0.00523176	0
39121.1	0.00880339	-0.00522031	0
39311.1	0.00870793	-0.00522667	0
39501.1	0.00870793	-0.00515223	0
39691.1	0.00863157	-0.00512932	0
39881.1	0.00870793	-0.00512996	0
40071.1	0.00872702	-0.00516114	0
40261.1	0.00874612	-0.00509751	0
40451.1	0.00863157	-0.00510578	0
40641.1	0.00868884	-0.00503834	0
40831.1	0.00874612	-0.00498489	0
41021.1	0.00863157	-0.00502307	0
41211.1	0.00882248	-0.00493336	0
41401.1	0.00876521	-0.00495181	0
41591.1	0.00865066	-0.00496835	0
41781.1	0.00870793	-0.004871	0
41971.1	0.00872702	-0.00486082	0
42161.1	0.00876521	-0.00489073	0
42351.1	0.00874612	-0.0048411	0
42541.1	0.00874612	-0.00480356	0
42731.1	0.00872702	-0.00485701	0
42921.1	0.00870793	-0.00477811	0
43111.1	0.00880339	-0.00477684	0
43301.1	0.00866975	-0.00476984	0
43491.1	0.00865066	-0.00475584	0
43681.1	0.00866975	-0.00470049	0
43871.1	0.00866975	-0.00470176	0
44061.1	0.00865066	-0.00462605	0
44251.1	0.00863157	-0.00465977	0
44441.1	0.00876521	-0.00465722	0
44631.1	0.00863157	-0.0046375	0
44821.1	0.00874612	-0.00461269	0
45011.1	0.0087843	-0.00453443	0
45201.1	0.00866975	-0.00454842	0
45391.1	0.00865066	-0.0045567	0
45581.1	0.00863157	-0.00451904	0
45771.1	0.00868884	-0.00450866	0
45961.1	0.00863157	-0.00447971	0
46151.1	0.00876521	-0.00453285	0
46341.1	0.00866975	-0.00446462	0
46531.1	0.00882248	-0.00450981	0
46721.1	0.00868884	-0.00442147	0
46911.1	0.0087843	-0.00447582	0
47101.1	0.00865066	-0.00443458	0
47291.1	0.00868884	-0.00437826	0
47481.1	0.00876521	-0.00441574	0
47671.1	0.00876521	-0.00439971	0
47861.1	0.00876521	-0.00432811	0
48051.1	0.00876521	-0.0042996	0
48241.1	0.00868884	-0.00436649	0
48431.1	0.00859339	-0.00430463	0
48621.1	0.00872702	-0.00425995	0
48811.1	0.00865066	-0.00434517	0
49001.1	0.00870793	-0.0042343	0
49191.1	0.00865066	-0.00424945	0
49381.1	0.0087843	-0.00423125	0
49571.1	0.00876521	-0.00421731	0
49761.1	0.00876521	-0.00416805	0
49951.1	0.00870793	-0.00422724	0
50141.1	0.00872702	-0.0041725	0
50331.1	0.0085743	-0.00415036	0
50521.1	0.00863157	-0.00416805	0
50711.1	0.00874612	-0.00415914	0
50901.1	0.00872702	-0.00408099	0
51091.1	0.00872702	-0.00405661	0
51281.1	0.00874612	-0.00409009	0
51471.1	0.00868884	-0.00403134	0
51661.1	0.00876521	-0.00402142	0
51851.1	0.00865066	-0.00401792	0
52041.1	0.00870793	-0.00400003	0
52231.1	0.00865066	-0.00398209	0
52421.1	0.00868884	-0.00396948	0
52611.1	0.00872702	-0.00395256	0
52801.1	0.00870793	-0.00396376	0
52844.8	0.00868884	-0.00393359	0