File: EXPERIMENTAL/Data/Battery-cycling/JP-measurements/T-cell/2024-04-23_JP-A3-02_T-cell_Li-Cu_1-mm-PP-spacer_75muL-4MLiFSI-DME_inside-glovebox_added-OCV-0.1s_04_CP_C10.txt
time/s	Ewe/V	I/mA	error
650.094	-0.137676	-1.94336	0
650.095	-0.199574	-1.95975	0
650.095	-0.219486	-1.95982	0
650.096	-0.235294	-1.95977	0
650.096	-0.24881	-1.9598	0
650.096	-0.260589	-1.95984	0
650.097	-0.27128	-1.95979	0
650.097	-0.281112	-1.95979	0
650.098	-0.290142	-1.9598	0
650.098	-0.298447	-1.95986	0
650.098	-0.306045	-1.9599	0
650.099	-0.313376	-1.95985	0
650.099	-0.320077	-1.95983	0
650.1	-0.326396	-1.95985	0
650.1	-0.332429	-1.95983	0
650.1	-0.338137	-1.95986	0
650.101	-0.343387	-1.95985	0
650.101	-0.34858	-1.95988	0
650.102	-0.353353	-1.95989	0
650.102	-0.357934	-1.95988	0
650.102	-0.362134	-1.95985	0
650.103	-0.366373	-1.95986	0
650.103	-0.370382	-1.95993	0
650.104	-0.374047	-1.95991	0
650.104	-0.377732	-1.95992	0
650.104	-0.38113	-1.95987	0
650.105	-0.384356	-1.95988	0
650.105	-0.387564	-1.95992	0
650.106	-0.390504	-1.95988	0
650.106	-0.393253	-1.95988	0
650.106	-0.396059	-1.95989	0
650.107	-0.398598	-1.9599	0
650.107	-0.40108	-1.95984	0
650.108	-0.403524	-1.95985	0
650.108	-0.405929	-1.95991	0
650.108	-0.408067	-1.95992	0
650.109	-0.411389	-1.9599	0
650.11	-0.415131	-1.95995	0
650.11	-0.417823	-1.95995	0
650.111	-0.421317	-1.95985	0
650.112	-0.424543	-1.95993	0
650.113	-0.427216	-1.96	0
650.114	-0.429946	-1.95993	0
650.114	-0.43237	-1.95998	0
650.115	-0.434528	-1.95986	0
650.116	-0.437028	-1.95992	0
650.117	-0.439472	-1.95993	0
650.119	-0.441916	-1.95991	0
650.122	-0.444169	-1.95997	0
650.125	-0.441973	-1.95991	0
650.126	-0.43972	-1.95988	0
650.127	-0.437601	-1.9599	0
650.127	-0.435368	-1.95993	0
650.128	-0.432619	-1.95995	0
650.129	-0.42985	-1.96	0
650.13	-0.427044	-1.95986	0
650.131	-0.423951	-1.95996	0
650.131	-0.420916	-1.95988	0
650.132	-0.417842	-1.95993	0
650.133	-0.414845	-1.95999	0
650.134	-0.412096	-1.95997	0
650.135	-0.409194	-1.96002	0
650.135	-0.406407	-1.95996	0
650.136	-0.403867	-1.95989	0
650.137	-0.401233	-1.95993	0
650.138	-0.398808	-1.95993	0
650.139	-0.396613	-1.95986	0
650.139	-0.39436	-1.95996	0
650.14	-0.392184	-1.95993	0
650.141	-0.389339	-1.95993	0
650.142	-0.386896	-1.95987	0
650.144	-0.384433	-1.95992	0
650.145	-0.381951	-1.95988	0
650.146	-0.379698	-1.95992	0
650.147	-0.377655	-1.95998	0
650.149	-0.375193	-1.95997	0
650.15	-0.372864	-1.95988	0
650.152	-0.370706	-1.95993	0
650.154	-0.36832	-1.95995	0
650.156	-0.366086	-1.95995	0
650.159	-0.363948	-1.95988	0
650.161	-0.361753	-1.95997	0
650.165	-0.359519	-1.95995	0
650.169	-0.357247	-1.95988	0
650.174	-0.355166	-1.95994	0
650.181	-0.353047	-1.95994	0
650.192	-0.350966	-1.95995	0
650.221	-0.348885	-1.95991	0
650.347	-0.350928	-1.95994	0
650.83	-0.348904	-1.95997	0
650.996	-0.346862	-1.9599	0
651.154	-0.344704	-1.95995	0
651.321	-0.342643	-1.95992	0
651.487	-0.340619	-1.95992	0
651.654	-0.338595	-1.95992	0
651.841	-0.336533	-1.9599	0
652.041	-0.334376	-1.95995	0
652.263	-0.332314	-1.9599	0
652.494	-0.330291	-1.95991	0
652.741	-0.328267	-1.95997	0
653.034	-0.326224	-1.95994	0
653.346	-0.324182	-1.95999	0
653.704	-0.322139	-1.95997	0
654.081	-0.320115	-1.95992	0
654.568	-0.318072	-1.95996	0
655.119	-0.31603	-1.95996	0
655.8	-0.31393	-1.95993	0
656.683	-0.311868	-1.95993	0
657.891	-0.309844	-1.95991	0
659.882	-0.307782	-1.95995	0
667.48	-0.307801	-1.95994	0
672.01	-0.309863	-1.95998	0
675.715	-0.311906	-1.95988	0
678.73	-0.313949	-1.95993	0
681.886	-0.315972	-1.95988	0
684.794	-0.318034	-1.96	0
687.753	-0.320058	-1.95997	0
690.572	-0.322082	-1.95993	0
693.434	-0.324105	-1.96	0
696.252	-0.326148	-1.96	0
699.097	-0.32821	-1.95991	0
702.044	-0.330233	-1.95994	0
704.925	-0.332276	-1.95991	0
707.864	-0.334338	-1.95994	0
710.875	-0.336362	-1.95993	0
713.87	-0.338442	-1.95995	0
716.939	-0.340466	-1.95996	0
720.017	-0.342528	-1.95997	0
723.197	-0.344552	-1.95992	0
726.312	-0.346575	-1.95994	0
729.507	-0.348618	-1.9599	0
732.77	-0.350661	-1.95992	0
736.116	-0.352761	-1.95995	0
739.513	-0.354784	-1.95997	0
742.826	-0.356808	-1.95991	0
746.203	-0.358851	-1.95991	0
749.717	-0.360874	-1.95998	0
753.054	-0.362917	-1.95992	0
756.452	-0.36496	-1.95993	0
759.989	-0.366984	-1.95989	0
763.394	-0.369007	-1.95998	0
766.789	-0.371031	-1.95999	0
770.207	-0.373093	-1.95994	0
773.704	-0.375155	-1.95997	0
777.077	-0.377197	-1.95993	0
780.484	-0.37924	-1.95994	0
783.734	-0.381264	-1.95995	0
787.04	-0.383325	-1.95998	0
790.31	-0.385406	-1.95993	0
793.589	-0.387468	-1.95996	0
796.764	-0.389511	-1.95993	0
799.858	-0.391535	-1.95997	0
802.975	-0.393558	-1.95991	0
806.023	-0.395582	-1.95999	0
808.979	-0.397606	-1.95993	0
811.875	-0.399629	-1.9599	0
814.869	-0.40171	-1.95996	0
817.757	-0.403772	-1.95999	0
820.546	-0.405796	-1.95999	0
823.343	-0.407877	-1.95994	0
826.153	-0.409919	-1.95996	0
828.763	-0.411943	-1.95995	0
830.094	-0.413069	-1.95994	0