File: EXPERIMENTAL/Data/Battery-cycling/JP-measurements/T-cell/2024-04-25_JP-A1-02_T-cell_Li-Cu_1-mm-PP-spacer_75muL-4MLiFSI-DME_inside-glovebox_added-OCV-0.1s_04_CP_C05.txt
time/s	Ewe/V	I/mA	error
97709.9	0.011711	-0.0194649	0
97709.9	-0.00239198	-0.0195776	0
97709.9	-0.00999583	-0.0195891	0
97709.9	-0.0175042	-0.0195897	0
97709.9	-0.0249169	-0.0195891	0
97709.9	-0.0323106	-0.0195929	0
97710	-0.0398763	-0.0195903	0
97710	-0.0472126	-0.0195859	0
97710.1	-0.0546254	-0.0195865	0
97710.2	-0.0619427	-0.0195871	0
97710.2	-0.0691262	-0.0195878	0
97710.3	-0.0763671	-0.0195916	0
97710.4	-0.0836653	-0.0195859	0
97710.5	-0.0910016	-0.0195973	0
97710.7	-0.0983189	-0.0195903	0
97710.9	-0.105655	-0.0195878	0
97711.1	-0.113011	-0.0195903	0
97711.3	-0.120156	-0.0195903	0
97712.2	-0.12113	-0.0195891	0
97712.5	-0.113851	-0.0195929	0
97712.7	-0.106534	-0.0195827	0
97713	-0.0992551	-0.0195846	0
97713.3	-0.0919187	-0.0195942	0
97713.6	-0.0847925	-0.0195916	0
97714.1	-0.0773797	-0.0195891	0
97714.7	-0.070177	-0.0195852	0
97715.7	-0.0628598	-0.0195871	0
97717.5	-0.0555807	-0.0195903	0
97722.6	-0.0482825	-0.0195865	0
97746.2	-0.0411563	-0.0195884	0
97807.5	-0.0344122	-0.0195884	0
97877.5	-0.031833	-0.0195916	0
97947.5	-0.0307631	-0.0195922	0
98017.5	-0.0302855	-0.0195916	0
98087.5	-0.0301327	-0.0195942	0
98157.5	-0.0299416	-0.0195935	0
98227.5	-0.0295786	-0.0195935	0
98297.5	-0.0296359	-0.0195948	0
98367.5	-0.0295595	-0.0195897	0
98437.5	-0.0293493	-0.0195871	0
98507.5	-0.0293493	-0.0195852	0
98577.5	-0.0293493	-0.0195878	0
98647.5	-0.0292729	-0.0195891	0
98717.5	-0.0293111	-0.019591	0
98787.5	-0.0291392	-0.0195897	0
98857.5	-0.029101	-0.0195865	0
98927.5	-0.0290437	-0.0195865	0
98997.5	-0.0290246	-0.0195897	0
99067.5	-0.0289672	-0.0195942	0
99137.5	-0.0289481	-0.0195821	0
99207.5	-0.0288717	-0.0195891	0
99277.5	-0.0288908	-0.0195897	0
99347.5	-0.028929	-0.0195846	0
99417.5	-0.0288335	-0.0195833	0
99487.5	-0.028738	-0.0195942	0
99557.5	-0.0287953	-0.0195852	0
99627.5	-0.0286233	-0.0195871	0
99697.5	-0.0286042	-0.0195891	0
99767.5	-0.0284323	-0.0195954	0
99837.5	-0.0285087	-0.0195948	0
99907.5	-0.0284514	-0.0195903	0
99977.5	-0.0284132	-0.0195827	0
100048	-0.0284514	-0.019591	0
100118	-0.028375	-0.019584	0
100188	-0.028375	-0.0195903	0
100258	-0.0283368	-0.0195954	0
100328	-0.0281648	-0.0195865	0
100398	-0.0281839	-0.0195897	0
100468	-0.0281839	-0.0195897	0
100538	-0.0281075	-0.0195999	0
100608	-0.0281266	-0.0195878	0
100678	-0.0280311	-0.0195865	0
100748	-0.0279929	-0.0195922	0
100818	-0.0279165	-0.0195922	0
100888	-0.0281075	-0.019584	0
100958	-0.0279929	-0.019598	0
101028	-0.0279929	-0.0195891	0
101098	-0.0278782	-0.0195935	0
101168	-0.0279165	-0.0195891	0
101238	-0.0278591	-0.0195891	0
101308	-0.02784	-0.0195884	0
101378	-0.0278209	-0.0195859	0
101448	-0.0279356	-0.0195871	0
101518	-0.0277827	-0.0195948	0
101588	-0.0277636	-0.0195942	0
101658	-0.0278018	-0.0195961	0
101728	-0.0278973	-0.0195897	0
101798	-0.0277445	-0.0195922	0
101868	-0.0277827	-0.0195897	0
101938	-0.0278018	-0.0195891	0
102008	-0.0275535	-0.0195903	0
102078	-0.0276872	-0.0195859	0
102148	-0.0277827	-0.0195884	0
102218	-0.0278209	-0.0195916	0
102288	-0.0277445	-0.0195897	0
102358	-0.0277063	-0.019591	0
102428	-0.0276299	-0.0195884	0
102498	-0.0276872	-0.0195878	0
102568	-0.027649	-0.0195948	0
102638	-0.0277636	-0.0195852	0
102708	-0.0276681	-0.0195884	0
102778	-0.027649	-0.0195852	0
102848	-0.0276872	-0.0195859	0
102918	-0.0277254	-0.0195897	0
102988	-0.0277254	-0.0195916	0
103058	-0.0276299	-0.0195929	0
103128	-0.0275152	-0.0195846	0
103198	-0.0277445	-0.0195833	0
103268	-0.0278018	-0.0195948	0
103338	-0.0277063	-0.0195878	0
103408	-0.0277445	-0.0195865	0
103478	-0.0275726	-0.0195878	0
103548	-0.0276681	-0.0195871	0
103618	-0.0277254	-0.0195967	0
103688	-0.0277254	-0.0195916	0
103758	-0.0276299	-0.019591	0
103828	-0.0277445	-0.0195878	0
103898	-0.0277445	-0.0195986	0
103968	-0.0277445	-0.0195929	0
104038	-0.0277254	-0.0195954	0
104108	-0.0277063	-0.0195871	0
104178	-0.0277254	-0.0195859	0
104248	-0.0277445	-0.0195935	0
104318	-0.0278209	-0.0195871	0
104388	-0.0278591	-0.0195827	0
104458	-0.0276681	-0.0195878	0
104528	-0.0277636	-0.0195903	0
104598	-0.0276299	-0.0195916	0
104668	-0.0275726	-0.0195801	0
104738	-0.0277827	-0.0195897	0
104808	-0.0277636	-0.0195929	0
104878	-0.0276681	-0.0195833	0
104948	-0.0277063	-0.0195884	0
105018	-0.0275917	-0.0195852	0
105088	-0.027649	-0.0195903	0
105158	-0.0277254	-0.0195967	0
105228	-0.0277254	-0.0195865	0
105298	-0.0277445	-0.0195884	0
105368	-0.0276872	-0.0195897	0
105438	-0.0277636	-0.0195935	0
105508	-0.0275535	-0.0195992	0
105578	-0.027649	-0.0195916	0
105648	-0.0275917	-0.0195897	0
105718	-0.0275726	-0.0195897	0
105788	-0.0277063	-0.0195922	0
105858	-0.0276872	-0.0195884	0
105928	-0.0277636	-0.0195897	0
105998	-0.0277827	-0.0195954	0
106068	-0.0277063	-0.0195903	0
106138	-0.0278018	-0.0195878	0
106208	-0.0276681	-0.0195929	0
106278	-0.0276681	-0.0195916	0
106348	-0.0277445	-0.0195897	0
106418	-0.0276681	-0.0195897	0
106488	-0.0277636	-0.0195891	0
106558	-0.0277445	-0.0195942	0
106628	-0.0276872	-0.0195903	0
106698	-0.0277445	-0.019591	0
106768	-0.0277254	-0.0195903	0
106838	-0.0278209	-0.0195929	0
106908	-0.027649	-0.0195808	0
106978	-0.0277445	-0.0195922	0
107048	-0.0276299	-0.0195948	0
107118	-0.0277827	-0.0195871	0
107188	-0.0276299	-0.0195916	0
107258	-0.0277827	-0.0195929	0
107328	-0.0277254	-0.0195967	0
107398	-0.0276872	-0.0195961	0
107468	-0.0277636	-0.019591	0
107538	-0.0278209	-0.0195922	0
107608	-0.0277827	-0.0195884	0
107678	-0.0277827	-0.0195948	0
107748	-0.0278018	-0.0195897	0
107818	-0.0277827	-0.0195878	0
107888	-0.02784	-0.0195942	0
107958	-0.0277827	-0.0195897	0
108028	-0.0278018	-0.0195871	0
108098	-0.0278209	-0.0195878	0
108168	-0.0277254	-0.0195954	0
108238	-0.0278209	-0.0195922	0
108308	-0.0278782	-0.0195922	0
108378	-0.0278591	-0.0195954	0
108448	-0.0278209	-0.019598	0
108518	-0.0278782	-0.0195929	0
108588	-0.0278591	-0.0195942	0
108658	-0.0278018	-0.0195967	0
108728	-0.0279356	-0.0195891	0
108798	-0.02784	-0.0195922	0
108868	-0.0277445	-0.0195871	0
108938	-0.0278209	-0.0195986	0
109008	-0.0279356	-0.0195999	0
109078	-0.0278018	-0.0195942	0
109148	-0.0278018	-0.0195846	0
109218	-0.0278973	-0.0195903	0
109288	-0.0279929	-0.0195846	0
109358	-0.0279547	-0.0195871	0
109428	-0.0279165	-0.0195961	0
109498	-0.0278591	-0.0195948	0
109568	-0.0277827	-0.0195903	0
109638	-0.0278591	-0.0195961	0
109708	-0.0278018	-0.0195922	0
109778	-0.0279547	-0.0195929	0
109848	-0.0278973	-0.0195961	0
109918	-0.0279547	-0.0195967	0
109988	-0.0277254	-0.0195916	0
110058	-0.0278018	-0.0195967	0
110128	-0.0278018	-0.0195891	0
110198	-0.0279929	-0.0195833	0
110268	-0.0278591	-0.0195897	0
110338	-0.0279165	-0.0195942	0
110408	-0.0279356	-0.0195935	0
110478	-0.0279929	-0.0195929	0
110548	-0.0278782	-0.0195954	0
110618	-0.0278973	-0.019591	0
110688	-0.0278782	-0.0195897	0
110758	-0.0279165	-0.019591	0
110828	-0.0279356	-0.0195884	0
110898	-0.0278018	-0.0195884	0
110968	-0.0279929	-0.019591	0
111038	-0.02784	-0.0195891	0
111108	-0.0278209	-0.0195865	0
111178	-0.0278591	-0.0195942	0
111248	-0.0278209	-0.0196005	0
111318	-0.0278973	-0.0195942	0
111388	-0.0279356	-0.0195935	0
111458	-0.0279547	-0.0195878	0
111528	-0.0278973	-0.0195903	0
111598	-0.02784	-0.0195986	0
111668	-0.0278782	-0.0195935	0
111738	-0.0278782	-0.0195935	0
111808	-0.0278209	-0.019591	0
111878	-0.0279165	-0.0195954	0
111948	-0.0279547	-0.0195891	0
112018	-0.0278209	-0.0195897	0
112088	-0.028012	-0.0195897	0
112158	-0.0278782	-0.0195935	0
112228	-0.0278591	-0.0195967	0
112298	-0.02784	-0.0195922	0
112368	-0.0278209	-0.019591	0
112438	-0.02784	-0.0195897	0
112508	-0.0278209	-0.0195897	0
112578	-0.0278018	-0.0195891	0
112648	-0.0279929	-0.0195878	0
112718	-0.0278591	-0.0195973	0
112788	-0.02784	-0.0195929	0
112858	-0.0277827	-0.019591	0
112928	-0.02784	-0.0195897	0
112998	-0.0277254	-0.019591	0
113068	-0.0278209	-0.019591	0
113138	-0.0278018	-0.0195942	0
113208	-0.0278973	-0.0195929	0
113278	-0.0277445	-0.0195852	0
113348	-0.0278018	-0.0195884	0
113418	-0.0277254	-0.0195916	0
113488	-0.0276872	-0.0195942	0
113558	-0.0277445	-0.0195871	0
113628	-0.0278018	-0.019591	0
113698	-0.0276108	-0.0195871	0
113768	-0.0277254	-0.0195916	0
113838	-0.0278018	-0.0195884	0
113908	-0.0277445	-0.0195935	0
113978	-0.0277827	-0.0195891	0
114048	-0.0277254	-0.0195897	0
114118	-0.027649	-0.0195986	0
114188	-0.0277254	-0.0195903	0
114258	-0.0275726	-0.0195897	0
114328	-0.0275917	-0.0195935	0
114398	-0.0275535	-0.0195859	0
114468	-0.0276108	-0.019591	0
114538	-0.0275917	-0.0195916	0
114608	-0.0275535	-0.0195884	0
114678	-0.0276108	-0.0195935	0
114748	-0.0275917	-0.019591	0
114818	-0.0275535	-0.0195922	0
114888	-0.0275152	-0.0195871	0
114958	-0.0275152	-0.019591	0
115028	-0.0274579	-0.0195929	0
115098	-0.0275344	-0.0195929	0
115168	-0.0274006	-0.0195878	0
115238	-0.0274388	-0.0195871	0
115308	-0.0274579	-0.0195922	0
115378	-0.0273624	-0.019598	0
115448	-0.0273051	-0.0195865	0
115518	-0.0274006	-0.0195922	0
115588	-0.0273242	-0.0195903	0
115658	-0.0272669	-0.0195922	0
115710	-0.0273433	-0.0195871	0